File: data/EDX_reports/site 4_Spectrum 4.txt
#FORMAT      : EMSA/MAS Spectral Data File
#VERSION     : 1.0
#TITLE       : Spectrum 4
#DATE        : 07-APR-2022
#TIME        : 16:58
#OWNER       :
#NPOINTS     : 1024.0
#NCOLUMNS    : 1.0
#XUNITS      : keV
#YUNITS      : counts
#DATATYPE    : XY
#XPERCHAN    : 0.01
#OFFSET      : -0.1
#SIGNALTYPE  : EDS
#CHOFFSET    : 10.0
#LIVETIME    : 101.149
#REALTIME    : 109.1
#BEAMKV      : 10.0
#MAGCAM      : 1700.0
#XTILTSTGE   : 0.0
#AZIMANGLE   : 0.0
#ELEVANGLE   : 29.0
#XPOSITION mm: -5.2765
#YPOSITION mm: 4.4840
#ZPOSITION mm: 14.0000
##OXINSTPT   : 4
##OXINSTSTROB: 48.42
##OXINSTELEMS: 6,8,13,14,11,17,19
##OXINSTLABEL: 6, 0.277, C
##OXINSTLABEL: 8, 0.525, O
##OXINSTLABEL: 13, 1.487, Al
##OXINSTLABEL: 14, 1.740, Si
##OXINSTLABEL: 11, 1.041, Na
##OXINSTLABEL: 17, 2.622, Cl
##OXINSTLABEL: 17, 2.816, Cl
##OXINSTLABEL: 17, 0.181, Cl
##OXINSTLABEL: 19, 3.314, K
##OXINSTLABEL: 19, 3.590, K
##OXINSTLABEL: 19, 0.260, K
#SPECTRUM    : Spectral Data Starts Here
-0.10000, 0.0
-0.06000, 1.0
-0.02000, 54.0
0.02000, 2338.0
0.06000, 4255.0
0.10000, 424.0
0.14000, 231.0
0.18000, 272.0
0.22000, 690.0
0.26000, 2914.0
0.30000, 1858.0
0.34000, 355.0
0.38000, 480.0
0.42000, 815.0
0.46000, 4101.0
0.50000, 29119.0
0.54000, 33159.0
0.58000, 4477.0
0.62000, 434.0
0.66000, 409.0
0.70000, 511.0
0.74000, 511.0
0.78000, 499.0
0.82000, 567.0
0.86000, 595.0
0.90000, 630.0
0.94000, 661.0
0.98000, 721.0
1.02000, 1089.0
1.06000, 1209.0
1.10000, 773.0
1.14000, 649.0
1.18000, 654.0
1.22000, 665.0
1.26000, 674.0
1.30000, 693.0
1.34000, 636.0
1.38000, 640.0
1.42000, 791.0
1.46000, 1598.0
1.50000, 1954.0
1.54000, 1159.0
1.58000, 762.0
1.62000, 709.0
1.66000, 2596.0
1.70000, 16387.0
1.74000, 35228.0
1.78000, 21357.0
1.82000, 4893.0
1.86000, 1523.0
1.90000, 600.0
1.94000, 390.0
1.98000, 350.0
2.02000, 338.0
2.06000, 328.0
2.10000, 297.0
2.14000, 317.0
2.18000, 299.0
2.22000, 338.0
2.26000, 381.0
2.30000, 364.0
2.34000, 310.0
2.38000, 278.0
2.42000, 283.0
2.46000, 278.0
2.50000, 287.0
2.54000, 303.0
2.58000, 345.0
2.62000, 440.0
2.66000, 369.0
2.70000, 288.0
2.74000, 221.0
2.78000, 267.0
2.82000, 253.0
2.86000, 251.0
2.90000, 213.0
2.94000, 244.0
2.98000, 203.0
3.02000, 196.0
3.06000, 184.0
3.10000, 187.0
3.14000, 213.0
3.18000, 188.0
3.22000, 220.0
3.26000, 233.0
3.30000, 280.0
3.34000, 317.0
3.38000, 233.0
3.42000, 206.0
3.46000, 199.0
3.50000, 213.0
3.54000, 191.0
3.58000, 188.0
3.62000, 194.0
3.66000, 196.0
3.70000, 182.0
3.74000, 159.0
3.78000, 147.0
3.82000, 148.0
3.86000, 149.0
3.90000, 153.0
3.94000, 133.0
3.98000, 153.0
4.02000, 127.0
4.06000, 125.0
4.10000, 140.0
4.14000, 123.0
4.18000, 119.0
4.22000, 131.0
4.26000, 104.0
4.30000, 102.0
4.34000, 118.0
4.38000, 116.0
4.42000, 119.0
4.46000, 109.0
4.50000, 100.0
4.54000, 113.0
4.58000, 101.0
4.62000, 104.0
4.66000, 99.0
4.70000, 91.0
4.74000, 90.0
4.78000, 77.0
4.82000, 101.0
4.86000, 81.0
4.90000, 76.0
4.94000, 81.0
4.98000, 86.0
5.02000, 79.0
5.06000, 73.0
5.10000, 83.0
5.14000, 72.0
5.18000, 74.0
5.22000, 80.0
5.26000, 70.0
5.30000, 73.0
5.34000, 77.0
5.38000, 82.0
5.42000, 68.0
5.46000, 73.0
5.50000, 63.0
5.54000, 54.0
5.58000, 65.0
5.62000, 69.0
5.66000, 62.0
5.70000, 58.0
5.74000, 60.0
5.78000, 48.0
5.82000, 52.0
5.86000, 52.0
5.90000, 56.0
5.94000, 59.0
5.98000, 60.0
6.02000, 66.0
6.06000, 45.0
6.10000, 51.0
6.14000, 53.0
6.18000, 49.0
6.22000, 48.0
6.26000, 38.0
6.30000, 47.0
6.34000, 51.0
6.38000, 50.0
6.42000, 42.0
6.46000, 47.0
6.50000, 41.0
6.54000, 38.0
6.58000, 35.0
6.62000, 44.0
6.66000, 42.0
6.70000, 28.0
6.74000, 31.0
6.78000, 31.0
6.82000, 37.0
6.86000, 31.0
6.90000, 37.0
6.94000, 30.0
6.98000, 28.0
7.02000, 20.0
7.06000, 26.0
7.10000, 30.0
7.14000, 27.0
7.18000, 33.0
7.22000, 33.0
7.26000, 21.0
7.30000, 29.0
7.34000, 27.0
7.38000, 21.0
7.42000, 27.0
7.46000, 16.0
7.50000, 23.0
7.54000, 23.0
7.58000, 23.0
7.62000, 14.0
7.66000, 23.0
7.70000, 18.0
7.74000, 18.0
7.78000, 18.0
7.82000, 17.0
7.86000, 18.0
7.90000, 16.0
7.94000, 21.0
7.98000, 12.0
8.02000, 15.0
8.06000, 21.0
8.10000, 15.0
8.14000, 11.0
8.18000, 13.0
8.22000, 17.0
8.26000, 12.0
8.30000, 13.0
8.34000, 15.0
8.38000, 8.0
8.42000, 7.0
8.46000, 8.0
8.50000, 15.0
8.54000, 9.0
8.58000, 8.0
8.62000, 9.0
8.66000, 7.0
8.70000, 4.0
8.74000, 8.0
8.78000, 7.0
8.82000, 7.0
8.86000, 12.0
8.90000, 6.0
8.94000, 7.0
8.98000, 3.0
9.02000, 3.0
9.06000, 4.0
9.10000, 2.0
9.14000, 6.0
9.18000, 3.0
9.22000, 2.0
9.26000, 3.0
9.30000, 0.0
9.34000, 2.0
9.38000, 2.0
9.42000, 0.0
9.46000, 0.0
9.50000, 0.0
9.54000, 0.0
9.58000, 0.0
9.62000, 0.0
9.66000, 0.0
9.70000, 0.0
9.74000, 0.0
9.78000, 0.0
9.82000, 0.0
9.86000, 1.0
9.90000, 0.0
9.94000, 0.0
9.98000, 0.0
10.02000, 0.0
10.06000, 1.0
10.10000, 0.0
10.13000, 0.0
#ENDOFDATA   :