File: data/EDX_reports/site 4_Spectrum 8.txt
#FORMAT      : EMSA/MAS Spectral Data File
#VERSION     : 1.0
#TITLE       : Spectrum 8
#DATE        : 07-APR-2022
#TIME        : 17:06
#OWNER       :
#NPOINTS     : 1024.0
#NCOLUMNS    : 1.0
#XUNITS      : keV
#YUNITS      : counts
#DATATYPE    : XY
#XPERCHAN    : 0.01
#OFFSET      : -0.1
#SIGNALTYPE  : EDS
#CHOFFSET    : 10.0
#LIVETIME    : 98.2888
#REALTIME    : 106.294
#BEAMKV      : 10.0
#MAGCAM      : 1700.0
#XTILTSTGE   : 0.0
#AZIMANGLE   : 0.0
#ELEVANGLE   : 29.0
#XPOSITION mm: -5.2765
#YPOSITION mm: 4.4840
#ZPOSITION mm: 14.0000
##OXINSTPT   : 4
##OXINSTSTROB: 48.44
##OXINSTELEMS: 6,8,13,14,11,20,17,19,26
##OXINSTLABEL: 6, 0.277, C
##OXINSTLABEL: 8, 0.525, O
##OXINSTLABEL: 13, 1.487, Al
##OXINSTLABEL: 14, 1.740, Si
##OXINSTLABEL: 11, 1.041, Na
##OXINSTLABEL: 20, 3.692, Ca
##OXINSTLABEL: 20, 4.013, Ca
##OXINSTLABEL: 20, 0.341, Ca
##OXINSTLABEL: 20, 0.303, Ca
##OXINSTLABEL: 17, 2.622, Cl
##OXINSTLABEL: 17, 2.816, Cl
##OXINSTLABEL: 17, 0.181, Cl
##OXINSTLABEL: 19, 3.314, K
##OXINSTLABEL: 19, 3.590, K
##OXINSTLABEL: 19, 0.260, K
##OXINSTLABEL: 26, 6.404, Fe
##OXINSTLABEL: 26, 7.058, Fe
##OXINSTLABEL: 26, 0.703, Fe
##OXINSTLABEL: 26, 0.615, Fe
#SPECTRUM    : Spectral Data Starts Here
-0.10000, 0.0
-0.06000, 0.0
-0.02000, 54.0
0.02000, 2182.0
0.06000, 4149.0
0.10000, 421.0
0.14000, 295.0
0.18000, 314.0
0.22000, 1046.0
0.26000, 4838.0
0.30000, 3107.0
0.34000, 534.0
0.38000, 654.0
0.42000, 937.0
0.46000, 4211.0
0.50000, 29152.0
0.54000, 33281.0
0.58000, 4594.0
0.62000, 528.0
0.66000, 565.0
0.70000, 743.0
0.74000, 649.0
0.78000, 621.0
0.82000, 635.0
0.86000, 662.0
0.90000, 686.0
0.94000, 746.0
0.98000, 990.0
1.02000, 2452.0
1.06000, 2727.0
1.10000, 1049.0
1.14000, 688.0
1.18000, 663.0
1.22000, 657.0
1.26000, 703.0
1.30000, 668.0
1.34000, 681.0
1.38000, 647.0
1.42000, 1031.0
1.46000, 3258.0
1.50000, 4360.0
1.54000, 2047.0
1.58000, 831.0
1.62000, 679.0
1.66000, 2218.0
1.70000, 13293.0
1.74000, 28742.0
1.78000, 17440.0
1.82000, 4030.0
1.86000, 1325.0
1.90000, 581.0
1.94000, 352.0
1.98000, 383.0
2.02000, 424.0
2.06000, 358.0
2.10000, 332.0
2.14000, 333.0
2.18000, 308.0
2.22000, 317.0
2.26000, 382.0
2.30000, 396.0
2.34000, 344.0
2.38000, 265.0
2.42000, 280.0
2.46000, 255.0
2.50000, 266.0
2.54000, 257.0
2.58000, 346.0
2.62000, 420.0
2.66000, 352.0
2.70000, 285.0
2.74000, 236.0
2.78000, 255.0
2.82000, 228.0
2.86000, 229.0
2.90000, 222.0
2.94000, 206.0
2.98000, 229.0
3.02000, 197.0
3.06000, 211.0
3.10000, 194.0
3.14000, 185.0
3.18000, 180.0
3.22000, 191.0
3.26000, 254.0
3.30000, 304.0
3.34000, 284.0
3.38000, 224.0
3.42000, 187.0
3.46000, 171.0
3.50000, 160.0
3.54000, 178.0
3.58000, 188.0
3.62000, 249.0
3.66000, 335.0
3.70000, 404.0
3.74000, 305.0
3.78000, 205.0
3.82000, 150.0
3.86000, 137.0
3.90000, 139.0
3.94000, 135.0
3.98000, 143.0
4.02000, 166.0
4.06000, 164.0
4.10000, 125.0
4.14000, 116.0
4.18000, 118.0
4.22000, 97.0
4.26000, 110.0
4.30000, 113.0
4.34000, 111.0
4.38000, 120.0
4.42000, 103.0
4.46000, 111.0
4.50000, 108.0
4.54000, 96.0
4.58000, 94.0
4.62000, 81.0
4.66000, 93.0
4.70000, 95.0
4.74000, 92.0
4.78000, 84.0
4.82000, 98.0
4.86000, 81.0
4.90000, 95.0
4.94000, 80.0
4.98000, 80.0
5.02000, 84.0
5.06000, 84.0
5.10000, 82.0
5.14000, 82.0
5.18000, 74.0
5.22000, 70.0
5.26000, 68.0
5.30000, 60.0
5.34000, 65.0
5.38000, 59.0
5.42000, 77.0
5.46000, 76.0
5.50000, 63.0
5.54000, 70.0
5.58000, 64.0
5.62000, 72.0
5.66000, 60.0
5.70000, 49.0
5.74000, 60.0
5.78000, 67.0
5.82000, 54.0
5.86000, 59.0
5.90000, 63.0
5.94000, 55.0
5.98000, 57.0
6.02000, 43.0
6.06000, 49.0
6.10000, 59.0
6.14000, 45.0
6.18000, 38.0
6.22000, 39.0
6.26000, 50.0
6.30000, 37.0
6.34000, 57.0
6.38000, 70.0
6.42000, 66.0
6.46000, 48.0
6.50000, 38.0
6.54000, 41.0
6.58000, 40.0
6.62000, 37.0
6.66000, 33.0
6.70000, 30.0
6.74000, 43.0
6.78000, 38.0
6.82000, 43.0
6.86000, 32.0
6.90000, 31.0
6.94000, 33.0
6.98000, 37.0
7.02000, 33.0
7.06000, 35.0
7.10000, 29.0
7.14000, 26.0
7.18000, 26.0
7.22000, 23.0
7.26000, 27.0
7.30000, 24.0
7.34000, 22.0
7.38000, 28.0
7.42000, 18.0
7.46000, 20.0
7.50000, 22.0
7.54000, 23.0
7.58000, 25.0
7.62000, 26.0
7.66000, 18.0
7.70000, 25.0
7.74000, 12.0
7.78000, 15.0
7.82000, 24.0
7.86000, 20.0
7.90000, 21.0
7.94000, 14.0
7.98000, 15.0
8.02000, 13.0
8.06000, 16.0
8.10000, 19.0
8.14000, 15.0
8.18000, 17.0
8.22000, 15.0
8.26000, 10.0
8.30000, 13.0
8.34000, 11.0
8.38000, 13.0
8.42000, 11.0
8.46000, 5.0
8.50000, 12.0
8.54000, 12.0
8.58000, 10.0
8.62000, 12.0
8.66000, 7.0
8.70000, 3.0
8.74000, 5.0
8.78000, 6.0
8.82000, 10.0
8.86000, 6.0
8.90000, 4.0
8.94000, 6.0
8.98000, 3.0
9.02000, 5.0
9.06000, 4.0
9.10000, 6.0
9.14000, 5.0
9.18000, 2.0
9.22000, 3.0
9.26000, 3.0
9.30000, 3.0
9.34000, 0.0
9.38000, 0.0
9.42000, 0.0
9.46000, 2.0
9.50000, 0.0
9.54000, 0.0
9.58000, 0.0
9.62000, 0.0
9.66000, 0.0
9.70000, 0.0
9.74000, 0.0
9.78000, 0.0
9.82000, 0.0
9.86000, 0.0
9.90000, 0.0
9.94000, 0.0
9.98000, 0.0
10.02000, 0.0
10.06000, 0.0
10.10000, 0.0
10.13000, 0.0
#ENDOFDATA   :