File: data/EDX_reports/site 4_Spectrum 5.txt
#FORMAT      : EMSA/MAS Spectral Data File
#VERSION     : 1.0
#TITLE       : Spectrum 5
#DATE        : 07-APR-2022
#TIME        : 17:00
#OWNER       :
#NPOINTS     : 1024.0
#NCOLUMNS    : 1.0
#XUNITS      : keV
#YUNITS      : counts
#DATATYPE    : XY
#XPERCHAN    : 0.01
#OFFSET      : -0.1
#SIGNALTYPE  : EDS
#CHOFFSET    : 10.0
#LIVETIME    : 111.317
#REALTIME    : 119.512
#BEAMKV      : 10.0
#MAGCAM      : 1700.0
#XTILTSTGE   : 0.0
#AZIMANGLE   : 0.0
#ELEVANGLE   : 29.0
#XPOSITION mm: -5.2765
#YPOSITION mm: 4.4840
#ZPOSITION mm: 14.0000
##OXINSTPT   : 4
##OXINSTSTROB: 48.44
##OXINSTELEMS: 6,8,13,14,11,17,19,20,12
##OXINSTLABEL: 6, 0.277, C
##OXINSTLABEL: 8, 0.525, O
##OXINSTLABEL: 13, 1.487, Al
##OXINSTLABEL: 14, 1.740, Si
##OXINSTLABEL: 11, 1.041, Na
##OXINSTLABEL: 17, 2.622, Cl
##OXINSTLABEL: 17, 2.816, Cl
##OXINSTLABEL: 17, 0.181, Cl
##OXINSTLABEL: 19, 3.314, K
##OXINSTLABEL: 19, 3.590, K
##OXINSTLABEL: 19, 0.260, K
##OXINSTLABEL: 20, 3.692, Ca
##OXINSTLABEL: 20, 4.013, Ca
##OXINSTLABEL: 20, 0.341, Ca
##OXINSTLABEL: 20, 0.303, Ca
##OXINSTLABEL: 12, 1.254, Mg
#SPECTRUM    : Spectral Data Starts Here
-0.10000, 0.0
-0.06000, 0.0
-0.02000, 58.0
0.02000, 2491.0
0.06000, 4706.0
0.10000, 436.0
0.14000, 237.0
0.18000, 265.0
0.22000, 887.0
0.26000, 4137.0
0.30000, 2738.0
0.34000, 380.0
0.38000, 409.0
0.42000, 733.0
0.46000, 3682.0
0.50000, 25934.0
0.54000, 29896.0
0.58000, 3998.0
0.62000, 337.0
0.66000, 386.0
0.70000, 486.0
0.74000, 495.0
0.78000, 480.0
0.82000, 522.0
0.86000, 559.0
0.90000, 547.0
0.94000, 627.0
0.98000, 690.0
1.02000, 1068.0
1.06000, 1129.0
1.10000, 776.0
1.14000, 649.0
1.18000, 651.0
1.22000, 826.0
1.26000, 957.0
1.30000, 820.0
1.34000, 677.0
1.38000, 630.0
1.42000, 809.0
1.46000, 1558.0
1.50000, 1866.0
1.54000, 1133.0
1.58000, 823.0
1.62000, 777.0
1.66000, 2704.0
1.70000, 17145.0
1.74000, 36709.0
1.78000, 22197.0
1.82000, 5053.0
1.86000, 1581.0
1.90000, 651.0
1.94000, 407.0
1.98000, 358.0
2.02000, 377.0
2.06000, 327.0
2.10000, 354.0
2.14000, 329.0
2.18000, 322.0
2.22000, 346.0
2.26000, 411.0
2.30000, 419.0
2.34000, 358.0
2.38000, 325.0
2.42000, 280.0
2.46000, 288.0
2.50000, 291.0
2.54000, 313.0
2.58000, 366.0
2.62000, 471.0
2.66000, 436.0
2.70000, 323.0
2.74000, 272.0
2.78000, 274.0
2.82000, 273.0
2.86000, 270.0
2.90000, 257.0
2.94000, 264.0
2.98000, 219.0
3.02000, 232.0
3.06000, 230.0
3.10000, 241.0
3.14000, 226.0
3.18000, 216.0
3.22000, 215.0
3.26000, 248.0
3.30000, 258.0
3.34000, 272.0
3.38000, 205.0
3.42000, 200.0
3.46000, 212.0
3.50000, 240.0
3.54000, 185.0
3.58000, 197.0
3.62000, 209.0
3.66000, 275.0
3.70000, 304.0
3.74000, 235.0
3.78000, 190.0
3.82000, 156.0
3.86000, 156.0
3.90000, 157.0
3.94000, 153.0
3.98000, 148.0
4.02000, 164.0
4.06000, 164.0
4.10000, 140.0
4.14000, 148.0
4.18000, 130.0
4.22000, 140.0
4.26000, 133.0
4.30000, 145.0
4.34000, 124.0
4.38000, 107.0
4.42000, 118.0
4.46000, 128.0
4.50000, 118.0
4.54000, 134.0
4.58000, 108.0
4.62000, 118.0
4.66000, 106.0
4.70000, 111.0
4.74000, 96.0
4.78000, 93.0
4.82000, 96.0
4.86000, 87.0
4.90000, 97.0
4.94000, 93.0
4.98000, 98.0
5.02000, 83.0
5.06000, 96.0
5.10000, 94.0
5.14000, 97.0
5.18000, 81.0
5.22000, 71.0
5.26000, 79.0
5.30000, 79.0
5.34000, 81.0
5.38000, 69.0
5.42000, 85.0
5.46000, 77.0
5.50000, 78.0
5.54000, 71.0
5.58000, 69.0
5.62000, 55.0
5.66000, 64.0
5.70000, 74.0
5.74000, 70.0
5.78000, 59.0
5.82000, 62.0
5.86000, 59.0
5.90000, 55.0
5.94000, 57.0
5.98000, 66.0
6.02000, 49.0
6.06000, 61.0
6.10000, 45.0
6.14000, 54.0
6.18000, 61.0
6.22000, 60.0
6.26000, 49.0
6.30000, 47.0
6.34000, 54.0
6.38000, 46.0
6.42000, 49.0
6.46000, 34.0
6.50000, 48.0
6.54000, 41.0
6.58000, 47.0
6.62000, 46.0
6.66000, 39.0
6.70000, 39.0
6.74000, 37.0
6.78000, 36.0
6.82000, 35.0
6.86000, 27.0
6.90000, 41.0
6.94000, 36.0
6.98000, 31.0
7.02000, 44.0
7.06000, 38.0
7.10000, 27.0
7.14000, 26.0
7.18000, 28.0
7.22000, 37.0
7.26000, 28.0
7.30000, 33.0
7.34000, 24.0
7.38000, 23.0
7.42000, 34.0
7.46000, 29.0
7.50000, 21.0
7.54000, 24.0
7.58000, 30.0
7.62000, 20.0
7.66000, 22.0
7.70000, 20.0
7.74000, 20.0
7.78000, 19.0
7.82000, 22.0
7.86000, 24.0
7.90000, 15.0
7.94000, 12.0
7.98000, 18.0
8.02000, 10.0
8.06000, 11.0
8.10000, 19.0
8.14000, 13.0
8.18000, 11.0
8.22000, 16.0
8.26000, 14.0
8.30000, 19.0
8.34000, 12.0
8.38000, 16.0
8.42000, 13.0
8.46000, 9.0
8.50000, 13.0
8.54000, 9.0
8.58000, 9.0
8.62000, 10.0
8.66000, 5.0
8.70000, 7.0
8.74000, 11.0
8.78000, 7.0
8.82000, 6.0
8.86000, 9.0
8.90000, 8.0
8.94000, 6.0
8.98000, 5.0
9.02000, 4.0
9.06000, 6.0
9.10000, 2.0
9.14000, 5.0
9.18000, 1.0
9.22000, 4.0
9.26000, 1.0
9.30000, 2.0
9.34000, 1.0
9.38000, 1.0
9.42000, 0.0
9.46000, 0.0
9.50000, 0.0
9.54000, 0.0
9.58000, 0.0
9.62000, 0.0
9.66000, 0.0
9.70000, 1.0
9.74000, 0.0
9.78000, 1.0
9.82000, 0.0
9.86000, 0.0
9.90000, 0.0
9.94000, 0.0
9.98000, 0.0
10.02000, 0.0
10.06000, 0.0
10.10000, 0.0
10.13000, 0.0
#ENDOFDATA   :