File: data/EDX_reports/site 4_Spectrum 3.txt
#FORMAT      : EMSA/MAS Spectral Data File
#VERSION     : 1.0
#TITLE       : Spectrum 3
#DATE        : 07-APR-2022
#TIME        : 16:56
#OWNER       :
#NPOINTS     : 1024.0
#NCOLUMNS    : 1.0
#XUNITS      : keV
#YUNITS      : counts
#DATATYPE    : XY
#XPERCHAN    : 0.01
#OFFSET      : -0.1
#SIGNALTYPE  : EDS
#CHOFFSET    : 10.0
#LIVETIME    : 88.6073
#REALTIME    : 96.4781
#BEAMKV      : 10.0
#MAGCAM      : 1700.0
#XTILTSTGE   : 0.0
#AZIMANGLE   : 0.0
#ELEVANGLE   : 29.0
#XPOSITION mm: -5.2765
#YPOSITION mm: 4.4840
#ZPOSITION mm: 14.0000
##OXINSTPT   : 4
##OXINSTSTROB: 48.36
##OXINSTELEMS: 6,8,14,11,17,19
##OXINSTLABEL: 6, 0.277, C
##OXINSTLABEL: 8, 0.525, O
##OXINSTLABEL: 14, 1.740, Si
##OXINSTLABEL: 11, 1.041, Na
##OXINSTLABEL: 17, 2.622, Cl
##OXINSTLABEL: 17, 2.816, Cl
##OXINSTLABEL: 17, 0.181, Cl
##OXINSTLABEL: 19, 3.314, K
##OXINSTLABEL: 19, 3.590, K
##OXINSTLABEL: 19, 0.260, K
#SPECTRUM    : Spectral Data Starts Here
-0.10000, 0.0
-0.06000, 0.0
-0.02000, 47.0
0.02000, 1946.0
0.06000, 3764.0
0.10000, 512.0
0.14000, 333.0
0.18000, 368.0
0.22000, 851.0
0.26000, 3484.0
0.30000, 2220.0
0.34000, 477.0
0.38000, 605.0
0.42000, 960.0
0.46000, 4719.0
0.50000, 32686.0
0.54000, 37836.0
0.58000, 5041.0
0.62000, 529.0
0.66000, 540.0
0.70000, 619.0
0.74000, 579.0
0.78000, 586.0
0.82000, 615.0
0.86000, 656.0
0.90000, 643.0
0.94000, 634.0
0.98000, 700.0
1.02000, 909.0
1.06000, 902.0
1.10000, 721.0
1.14000, 614.0
1.18000, 627.0
1.22000, 658.0
1.26000, 614.0
1.30000, 563.0
1.34000, 606.0
1.38000, 579.0
1.42000, 646.0
1.46000, 791.0
1.50000, 882.0
1.54000, 716.0
1.58000, 622.0
1.62000, 708.0
1.66000, 2277.0
1.70000, 15367.0
1.74000, 32613.0
1.78000, 19796.0
1.82000, 4537.0
1.86000, 1443.0
1.90000, 600.0
1.94000, 327.0
1.98000, 318.0
2.02000, 330.0
2.06000, 300.0
2.10000, 317.0
2.14000, 290.0
2.18000, 294.0
2.22000, 337.0
2.26000, 354.0
2.30000, 333.0
2.34000, 296.0
2.38000, 246.0
2.42000, 259.0
2.46000, 255.0
2.50000, 239.0
2.54000, 237.0
2.58000, 309.0
2.62000, 401.0
2.66000, 339.0
2.70000, 222.0
2.74000, 200.0
2.78000, 229.0
2.82000, 215.0
2.86000, 212.0
2.90000, 205.0
2.94000, 190.0
2.98000, 194.0
3.02000, 173.0
3.06000, 198.0
3.10000, 174.0
3.14000, 164.0
3.18000, 147.0
3.22000, 173.0
3.26000, 191.0
3.30000, 203.0
3.34000, 195.0
3.38000, 178.0
3.42000, 165.0
3.46000, 183.0
3.50000, 187.0
3.54000, 169.0
3.58000, 165.0
3.62000, 142.0
3.66000, 147.0
3.70000, 149.0
3.74000, 122.0
3.78000, 132.0
3.82000, 127.0
3.86000, 134.0
3.90000, 125.0
3.94000, 123.0
3.98000, 118.0
4.02000, 126.0
4.06000, 110.0
4.10000, 119.0
4.14000, 97.0
4.18000, 115.0
4.22000, 102.0
4.26000, 96.0
4.30000, 109.0
4.34000, 98.0
4.38000, 91.0
4.42000, 91.0
4.46000, 86.0
4.50000, 104.0
4.54000, 89.0
4.58000, 82.0
4.62000, 87.0
4.66000, 77.0
4.70000, 87.0
4.74000, 69.0
4.78000, 78.0
4.82000, 79.0
4.86000, 78.0
4.90000, 87.0
4.94000, 86.0
4.98000, 77.0
5.02000, 81.0
5.06000, 67.0
5.10000, 74.0
5.14000, 59.0
5.18000, 80.0
5.22000, 60.0
5.26000, 72.0
5.30000, 65.0
5.34000, 56.0
5.38000, 61.0
5.42000, 61.0
5.46000, 49.0
5.50000, 61.0
5.54000, 59.0
5.58000, 52.0
5.62000, 64.0
5.66000, 63.0
5.70000, 54.0
5.74000, 53.0
5.78000, 44.0
5.82000, 53.0
5.86000, 57.0
5.90000, 45.0
5.94000, 54.0
5.98000, 50.0
6.02000, 41.0
6.06000, 40.0
6.10000, 42.0
6.14000, 46.0
6.18000, 41.0
6.22000, 44.0
6.26000, 42.0
6.30000, 43.0
6.34000, 49.0
6.38000, 51.0
6.42000, 45.0
6.46000, 38.0
6.50000, 40.0
6.54000, 28.0
6.58000, 34.0
6.62000, 24.0
6.66000, 33.0
6.70000, 32.0
6.74000, 29.0
6.78000, 37.0
6.82000, 32.0
6.86000, 28.0
6.90000, 25.0
6.94000, 28.0
6.98000, 33.0
7.02000, 29.0
7.06000, 25.0
7.10000, 24.0
7.14000, 26.0
7.18000, 28.0
7.22000, 29.0
7.26000, 21.0
7.30000, 24.0
7.34000, 23.0
7.38000, 19.0
7.42000, 22.0
7.46000, 20.0
7.50000, 19.0
7.54000, 19.0
7.58000, 21.0
7.62000, 17.0
7.66000, 22.0
7.70000, 14.0
7.74000, 19.0
7.78000, 16.0
7.82000, 14.0
7.86000, 17.0
7.90000, 18.0
7.94000, 13.0
7.98000, 14.0
8.02000, 18.0
8.06000, 5.0
8.10000, 17.0
8.14000, 13.0
8.18000, 14.0
8.22000, 8.0
8.26000, 13.0
8.30000, 11.0
8.34000, 15.0
8.38000, 6.0
8.42000, 14.0
8.46000, 10.0
8.50000, 12.0
8.54000, 7.0
8.58000, 6.0
8.62000, 7.0
8.66000, 8.0
8.70000, 6.0
8.74000, 6.0
8.78000, 5.0
8.82000, 6.0
8.86000, 6.0
8.90000, 3.0
8.94000, 5.0
8.98000, 3.0
9.02000, 4.0
9.06000, 2.0
9.10000, 1.0
9.14000, 2.0
9.18000, 2.0
9.22000, 2.0
9.26000, 3.0
9.30000, 0.0
9.34000, 0.0
9.38000, 0.0
9.42000, 1.0
9.46000, 0.0
9.50000, 0.0
9.54000, 0.0
9.58000, 0.0
9.62000, 0.0
9.66000, 0.0
9.70000, 0.0
9.74000, 0.0
9.78000, 0.0
9.82000, 0.0
9.86000, 0.0
9.90000, 0.0
9.94000, 0.0
9.98000, 1.0
10.02000, 0.0
10.06000, 0.0
10.10000, 0.0
10.13000, 0.0
#ENDOFDATA   :