File: data/EDX_reports/site 4_Spectrum 6.txt
#FORMAT      : EMSA/MAS Spectral Data File
#VERSION     : 1.0
#TITLE       : Spectrum 6
#DATE        : 07-APR-2022
#TIME        : 17:02
#OWNER       :
#NPOINTS     : 1024.0
#NCOLUMNS    : 1.0
#XUNITS      : keV
#YUNITS      : counts
#DATATYPE    : XY
#XPERCHAN    : 0.01
#OFFSET      : -0.1
#SIGNALTYPE  : EDS
#CHOFFSET    : 10.0
#LIVETIME    : 102.031
#REALTIME    : 110.023
#BEAMKV      : 10.0
#MAGCAM      : 1700.0
#XTILTSTGE   : 0.0
#AZIMANGLE   : 0.0
#ELEVANGLE   : 29.0
#XPOSITION mm: -5.2765
#YPOSITION mm: 4.4840
#ZPOSITION mm: 14.0000
##OXINSTPT   : 4
##OXINSTSTROB: 48.40
##OXINSTELEMS: 6,8,11,13,14,19,17,26,20
##OXINSTLABEL: 6, 0.277, C
##OXINSTLABEL: 8, 0.525, O
##OXINSTLABEL: 11, 1.041, Na
##OXINSTLABEL: 13, 1.487, Al
##OXINSTLABEL: 14, 1.740, Si
##OXINSTLABEL: 19, 3.314, K
##OXINSTLABEL: 19, 3.590, K
##OXINSTLABEL: 19, 0.260, K
##OXINSTLABEL: 17, 2.622, Cl
##OXINSTLABEL: 17, 2.816, Cl
##OXINSTLABEL: 17, 0.181, Cl
##OXINSTLABEL: 26, 6.404, Fe
##OXINSTLABEL: 26, 7.058, Fe
##OXINSTLABEL: 26, 0.703, Fe
##OXINSTLABEL: 26, 0.615, Fe
##OXINSTLABEL: 20, 3.692, Ca
##OXINSTLABEL: 20, 4.013, Ca
##OXINSTLABEL: 20, 0.341, Ca
##OXINSTLABEL: 20, 0.303, Ca
#SPECTRUM    : Spectral Data Starts Here
-0.10000, 0.0
-0.06000, 1.0
-0.02000, 50.0
0.02000, 2263.0
0.06000, 4334.0
0.10000, 449.0
0.14000, 233.0
0.18000, 279.0
0.22000, 658.0
0.26000, 2908.0
0.30000, 1906.0
0.34000, 376.0
0.38000, 511.0
0.42000, 852.0
0.46000, 4073.0
0.50000, 28915.0
0.54000, 33383.0
0.58000, 4542.0
0.62000, 470.0
0.66000, 490.0
0.70000, 665.0
0.74000, 632.0
0.78000, 547.0
0.82000, 552.0
0.86000, 571.0
0.90000, 600.0
0.94000, 664.0
0.98000, 798.0
1.02000, 1442.0
1.06000, 1632.0
1.10000, 885.0
1.14000, 641.0
1.18000, 669.0
1.22000, 674.0
1.26000, 701.0
1.30000, 678.0
1.34000, 638.0
1.38000, 660.0
1.42000, 902.0
1.46000, 2209.0
1.50000, 2999.0
1.54000, 1571.0
1.58000, 822.0
1.62000, 676.0
1.66000, 2450.0
1.70000, 15433.0
1.74000, 32987.0
1.78000, 19995.0
1.82000, 4706.0
1.86000, 1458.0
1.90000, 666.0
1.94000, 367.0
1.98000, 345.0
2.02000, 365.0
2.06000, 370.0
2.10000, 315.0
2.14000, 316.0
2.18000, 329.0
2.22000, 342.0
2.26000, 367.0
2.30000, 331.0
2.34000, 332.0
2.38000, 302.0
2.42000, 274.0
2.46000, 284.0
2.50000, 268.0
2.54000, 274.0
2.58000, 345.0
2.62000, 424.0
2.66000, 360.0
2.70000, 302.0
2.74000, 256.0
2.78000, 233.0
2.82000, 261.0
2.86000, 233.0
2.90000, 230.0
2.94000, 238.0
2.98000, 225.0
3.02000, 233.0
3.06000, 213.0
3.10000, 231.0
3.14000, 215.0
3.18000, 223.0
3.22000, 215.0
3.26000, 316.0
3.30000, 426.0
3.34000, 433.0
3.38000, 288.0
3.42000, 207.0
3.46000, 207.0
3.50000, 204.0
3.54000, 212.0
3.58000, 193.0
3.62000, 224.0
3.66000, 233.0
3.70000, 223.0
3.74000, 183.0
3.78000, 166.0
3.82000, 156.0
3.86000, 146.0
3.90000, 141.0
3.94000, 157.0
3.98000, 147.0
4.02000, 150.0
4.06000, 141.0
4.10000, 140.0
4.14000, 123.0
4.18000, 122.0
4.22000, 126.0
4.26000, 107.0
4.30000, 102.0
4.34000, 124.0
4.38000, 135.0
4.42000, 102.0
4.46000, 126.0
4.50000, 117.0
4.54000, 115.0
4.58000, 101.0
4.62000, 106.0
4.66000, 103.0
4.70000, 93.0
4.74000, 112.0
4.78000, 123.0
4.82000, 96.0
4.86000, 105.0
4.90000, 82.0
4.94000, 92.0
4.98000, 84.0
5.02000, 82.0
5.06000, 84.0
5.10000, 79.0
5.14000, 84.0
5.18000, 69.0
5.22000, 88.0
5.26000, 73.0
5.30000, 70.0
5.34000, 84.0
5.38000, 67.0
5.42000, 72.0
5.46000, 61.0
5.50000, 68.0
5.54000, 74.0
5.58000, 74.0
5.62000, 72.0
5.66000, 75.0
5.70000, 62.0
5.74000, 71.0
5.78000, 55.0
5.82000, 56.0
5.86000, 55.0
5.90000, 55.0
5.94000, 63.0
5.98000, 56.0
6.02000, 58.0
6.06000, 53.0
6.10000, 52.0
6.14000, 50.0
6.18000, 52.0
6.22000, 51.0
6.26000, 45.0
6.30000, 53.0
6.34000, 64.0
6.38000, 58.0
6.42000, 63.0
6.46000, 52.0
6.50000, 46.0
6.54000, 38.0
6.58000, 39.0
6.62000, 47.0
6.66000, 35.0
6.70000, 43.0
6.74000, 41.0
6.78000, 41.0
6.82000, 36.0
6.86000, 42.0
6.90000, 33.0
6.94000, 33.0
6.98000, 33.0
7.02000, 37.0
7.06000, 37.0
7.10000, 27.0
7.14000, 36.0
7.18000, 32.0
7.22000, 32.0
7.26000, 24.0
7.30000, 33.0
7.34000, 22.0
7.38000, 23.0
7.42000, 23.0
7.46000, 23.0
7.50000, 24.0
7.54000, 19.0
7.58000, 29.0
7.62000, 26.0
7.66000, 19.0
7.70000, 17.0
7.74000, 21.0
7.78000, 24.0
7.82000, 22.0
7.86000, 14.0
7.90000, 15.0
7.94000, 19.0
7.98000, 12.0
8.02000, 17.0
8.06000, 14.0
8.10000, 15.0
8.14000, 15.0
8.18000, 13.0
8.22000, 13.0
8.26000, 14.0
8.30000, 16.0
8.34000, 17.0
8.38000, 10.0
8.42000, 9.0
8.46000, 8.0
8.50000, 8.0
8.54000, 10.0
8.58000, 9.0
8.62000, 8.0
8.66000, 13.0
8.70000, 7.0
8.74000, 9.0
8.78000, 9.0
8.82000, 5.0
8.86000, 5.0
8.90000, 7.0
8.94000, 7.0
8.98000, 7.0
9.02000, 4.0
9.06000, 3.0
9.10000, 3.0
9.14000, 2.0
9.18000, 4.0
9.22000, 1.0
9.26000, 0.0
9.30000, 3.0
9.34000, 1.0
9.38000, 2.0
9.42000, 1.0
9.46000, 0.0
9.50000, 0.0
9.54000, 0.0
9.58000, 0.0
9.62000, 0.0
9.66000, 0.0
9.70000, 0.0
9.74000, 0.0
9.78000, 0.0
9.82000, 0.0
9.86000, 0.0
9.90000, 0.0
9.94000, 0.0
9.98000, 0.0
10.02000, 0.0
10.06000, 0.0
10.10000, 0.0
10.13000, 0.0
#ENDOFDATA   :