File: data/EDX_reports/site 4_Spectrum 10.txt
#FORMAT      : EMSA/MAS Spectral Data File
#VERSION     : 1.0
#TITLE       : Spectrum 10
#DATE        : 07-APR-2022
#TIME        : 17:10
#OWNER       :
#NPOINTS     : 1024.0
#NCOLUMNS    : 1.0
#XUNITS      : keV
#YUNITS      : counts
#DATATYPE    : XY
#XPERCHAN    : 0.01
#OFFSET      : -0.1
#SIGNALTYPE  : EDS
#CHOFFSET    : 10.0
#LIVETIME    : 123.715
#REALTIME    : 132.227
#BEAMKV      : 10.0
#MAGCAM      : 1700.0
#XTILTSTGE   : 0.0
#AZIMANGLE   : 0.0
#ELEVANGLE   : 29.0
#XPOSITION mm: -5.2765
#YPOSITION mm: 4.4840
#ZPOSITION mm: 14.0000
##OXINSTPT   : 4
##OXINSTSTROB: 48.44
##OXINSTELEMS: 6,8,11,13,14,17,19,20,26,16
##OXINSTLABEL: 6, 0.277, C
##OXINSTLABEL: 8, 0.525, O
##OXINSTLABEL: 11, 1.041, Na
##OXINSTLABEL: 13, 1.487, Al
##OXINSTLABEL: 14, 1.740, Si
##OXINSTLABEL: 17, 2.622, Cl
##OXINSTLABEL: 17, 2.816, Cl
##OXINSTLABEL: 17, 0.181, Cl
##OXINSTLABEL: 19, 3.314, K
##OXINSTLABEL: 19, 3.590, K
##OXINSTLABEL: 19, 0.260, K
##OXINSTLABEL: 20, 3.692, Ca
##OXINSTLABEL: 20, 4.013, Ca
##OXINSTLABEL: 20, 0.341, Ca
##OXINSTLABEL: 20, 0.303, Ca
##OXINSTLABEL: 26, 6.404, Fe
##OXINSTLABEL: 26, 7.058, Fe
##OXINSTLABEL: 26, 0.703, Fe
##OXINSTLABEL: 26, 0.615, Fe
##OXINSTLABEL: 16, 2.308, S
##OXINSTLABEL: 16, 2.464, S
#SPECTRUM    : Spectral Data Starts Here
-0.10000, 0.0
-0.06000, 0.0
-0.02000, 55.0
0.02000, 2792.0
0.06000, 5330.0
0.10000, 503.0
0.14000, 332.0
0.18000, 433.0
0.22000, 1359.0
0.26000, 6233.0
0.30000, 4144.0
0.34000, 588.0
0.38000, 792.0
0.42000, 921.0
0.46000, 3363.0
0.50000, 23649.0
0.54000, 27153.0
0.58000, 3830.0
0.62000, 486.0
0.66000, 631.0
0.70000, 979.0
0.74000, 744.0
0.78000, 611.0
0.82000, 611.0
0.86000, 665.0
0.90000, 731.0
0.94000, 799.0
0.98000, 942.0
1.02000, 2028.0
1.06000, 2205.0
1.10000, 1038.0
1.14000, 727.0
1.18000, 685.0
1.22000, 836.0
1.26000, 958.0
1.30000, 850.0
1.34000, 733.0
1.38000, 706.0
1.42000, 1049.0
1.46000, 2654.0
1.50000, 3431.0
1.54000, 1717.0
1.58000, 897.0
1.62000, 797.0
1.66000, 2288.0
1.70000, 14325.0
1.74000, 30865.0
1.78000, 18656.0
1.82000, 4542.0
1.86000, 1446.0
1.90000, 667.0
1.94000, 442.0
1.98000, 458.0
2.02000, 464.0
2.06000, 439.0
2.10000, 408.0
2.14000, 372.0
2.18000, 377.0
2.22000, 406.0
2.26000, 548.0
2.30000, 674.0
2.34000, 633.0
2.38000, 411.0
2.42000, 369.0
2.46000, 337.0
2.50000, 350.0
2.54000, 394.0
2.58000, 528.0
2.62000, 749.0
2.66000, 627.0
2.70000, 410.0
2.74000, 303.0
2.78000, 293.0
2.82000, 310.0
2.86000, 314.0
2.90000, 282.0
2.94000, 240.0
2.98000, 272.0
3.02000, 253.0
3.06000, 257.0
3.10000, 248.0
3.14000, 263.0
3.18000, 256.0
3.22000, 263.0
3.26000, 341.0
3.30000, 535.0
3.34000, 568.0
3.38000, 359.0
3.42000, 262.0
3.46000, 249.0
3.50000, 233.0
3.54000, 247.0
3.58000, 256.0
3.62000, 308.0
3.66000, 432.0
3.70000, 479.0
3.74000, 399.0
3.78000, 243.0
3.82000, 196.0
3.86000, 205.0
3.90000, 173.0
3.94000, 184.0
3.98000, 208.0
4.02000, 211.0
4.06000, 196.0
4.10000, 165.0
4.14000, 157.0
4.18000, 129.0
4.22000, 145.0
4.26000, 155.0
4.30000, 152.0
4.34000, 146.0
4.38000, 148.0
4.42000, 140.0
4.46000, 133.0
4.50000, 144.0
4.54000, 149.0
4.58000, 134.0
4.62000, 130.0
4.66000, 106.0
4.70000, 123.0
4.74000, 115.0
4.78000, 110.0
4.82000, 114.0
4.86000, 107.0
4.90000, 113.0
4.94000, 109.0
4.98000, 125.0
5.02000, 102.0
5.06000, 108.0
5.10000, 102.0
5.14000, 105.0
5.18000, 90.0
5.22000, 91.0
5.26000, 91.0
5.30000, 94.0
5.34000, 93.0
5.38000, 96.0
5.42000, 85.0
5.46000, 64.0
5.50000, 79.0
5.54000, 73.0
5.58000, 71.0
5.62000, 82.0
5.66000, 84.0
5.70000, 80.0
5.74000, 73.0
5.78000, 85.0
5.82000, 73.0
5.86000, 69.0
5.90000, 69.0
5.94000, 74.0
5.98000, 74.0
6.02000, 67.0
6.06000, 53.0
6.10000, 67.0
6.14000, 54.0
6.18000, 69.0
6.22000, 57.0
6.26000, 72.0
6.30000, 64.0
6.34000, 70.0
6.38000, 100.0
6.42000, 92.0
6.46000, 83.0
6.50000, 54.0
6.54000, 47.0
6.58000, 48.0
6.62000, 49.0
6.66000, 50.0
6.70000, 41.0
6.74000, 42.0
6.78000, 29.0
6.82000, 41.0
6.86000, 41.0
6.90000, 41.0
6.94000, 30.0
6.98000, 45.0
7.02000, 38.0
7.06000, 45.0
7.10000, 48.0
7.14000, 34.0
7.18000, 39.0
7.22000, 39.0
7.26000, 35.0
7.30000, 36.0
7.34000, 40.0
7.38000, 34.0
7.42000, 26.0
7.46000, 25.0
7.50000, 26.0
7.54000, 22.0
7.58000, 22.0
7.62000, 33.0
7.66000, 23.0
7.70000, 25.0
7.74000, 29.0
7.78000, 25.0
7.82000, 27.0
7.86000, 25.0
7.90000, 33.0
7.94000, 24.0
7.98000, 26.0
8.02000, 22.0
8.06000, 19.0
8.10000, 21.0
8.14000, 25.0
8.18000, 20.0
8.22000, 24.0
8.26000, 15.0
8.30000, 10.0
8.34000, 17.0
8.38000, 13.0
8.42000, 21.0
8.46000, 11.0
8.50000, 17.0
8.54000, 19.0
8.58000, 13.0
8.62000, 12.0
8.66000, 15.0
8.70000, 12.0
8.74000, 10.0
8.78000, 12.0
8.82000, 11.0
8.86000, 10.0
8.90000, 8.0
8.94000, 4.0
8.98000, 8.0
9.02000, 9.0
9.06000, 6.0
9.10000, 7.0
9.14000, 4.0
9.18000, 4.0
9.22000, 1.0
9.26000, 5.0
9.30000, 1.0
9.34000, 6.0
9.38000, 2.0
9.42000, 2.0
9.46000, 1.0
9.50000, 3.0
9.54000, 1.0
9.58000, 0.0
9.62000, 0.0
9.66000, 0.0
9.70000, 0.0
9.74000, 0.0
9.78000, 0.0
9.82000, 0.0
9.86000, 0.0
9.90000, 1.0
9.94000, 0.0
9.98000, 0.0
10.02000, 0.0
10.06000, 0.0
10.10000, 0.0
10.13000, 0.0
#ENDOFDATA   :