File: data/EDX_reports/site 4_Spectrum 7.txt
#FORMAT      : EMSA/MAS Spectral Data File
#VERSION     : 1.0
#TITLE       : Spectrum 7
#DATE        : 07-APR-2022
#TIME        : 17:04
#OWNER       :
#NPOINTS     : 1024.0
#NCOLUMNS    : 1.0
#XUNITS      : keV
#YUNITS      : counts
#DATATYPE    : XY
#XPERCHAN    : 0.01
#OFFSET      : -0.1
#SIGNALTYPE  : EDS
#CHOFFSET    : 10.0
#LIVETIME    : 115.211
#REALTIME    : 123.486
#BEAMKV      : 10.0
#MAGCAM      : 1700.0
#XTILTSTGE   : 0.0
#AZIMANGLE   : 0.0
#ELEVANGLE   : 29.0
#XPOSITION mm: -5.2765
#YPOSITION mm: 4.4840
#ZPOSITION mm: 14.0000
##OXINSTPT   : 4
##OXINSTSTROB: 48.45
##OXINSTELEMS: 6,8,13,14,11,17,19,20,26
##OXINSTLABEL: 6, 0.277, C
##OXINSTLABEL: 8, 0.525, O
##OXINSTLABEL: 13, 1.487, Al
##OXINSTLABEL: 14, 1.740, Si
##OXINSTLABEL: 11, 1.041, Na
##OXINSTLABEL: 17, 2.622, Cl
##OXINSTLABEL: 17, 2.816, Cl
##OXINSTLABEL: 17, 0.181, Cl
##OXINSTLABEL: 19, 3.314, K
##OXINSTLABEL: 19, 3.590, K
##OXINSTLABEL: 19, 0.260, K
##OXINSTLABEL: 20, 3.692, Ca
##OXINSTLABEL: 20, 4.013, Ca
##OXINSTLABEL: 20, 0.341, Ca
##OXINSTLABEL: 20, 0.303, Ca
##OXINSTLABEL: 26, 6.404, Fe
##OXINSTLABEL: 26, 7.058, Fe
##OXINSTLABEL: 26, 0.703, Fe
##OXINSTLABEL: 26, 0.615, Fe
#SPECTRUM    : Spectral Data Starts Here
-0.10000, 0.0
-0.06000, 0.0
-0.02000, 63.0
0.02000, 2654.0
0.06000, 4953.0
0.10000, 436.0
0.14000, 252.0
0.18000, 282.0
0.22000, 897.0
0.26000, 3787.0
0.30000, 2407.0
0.34000, 411.0
0.38000, 497.0
0.42000, 802.0
0.46000, 3843.0
0.50000, 27001.0
0.54000, 30373.0
0.58000, 4194.0
0.62000, 474.0
0.66000, 518.0
0.70000, 657.0
0.74000, 592.0
0.78000, 576.0
0.82000, 586.0
0.86000, 610.0
0.90000, 646.0
0.94000, 696.0
0.98000, 779.0
1.02000, 1205.0
1.06000, 1318.0
1.10000, 821.0
1.14000, 706.0
1.18000, 670.0
1.22000, 746.0
1.26000, 757.0
1.30000, 746.0
1.34000, 696.0
1.38000, 648.0
1.42000, 879.0
1.46000, 1792.0
1.50000, 2332.0
1.54000, 1291.0
1.58000, 809.0
1.62000, 742.0
1.66000, 2496.0
1.70000, 16178.0
1.74000, 34356.0
1.78000, 20803.0
1.82000, 4800.0
1.86000, 1540.0
1.90000, 680.0
1.94000, 414.0
1.98000, 413.0
2.02000, 413.0
2.06000, 360.0
2.10000, 345.0
2.14000, 335.0
2.18000, 350.0
2.22000, 363.0
2.26000, 387.0
2.30000, 382.0
2.34000, 365.0
2.38000, 306.0
2.42000, 301.0
2.46000, 304.0
2.50000, 318.0
2.54000, 324.0
2.58000, 380.0
2.62000, 517.0
2.66000, 446.0
2.70000, 307.0
2.74000, 278.0
2.78000, 269.0
2.82000, 271.0
2.86000, 274.0
2.90000, 263.0
2.94000, 235.0
2.98000, 248.0
3.02000, 234.0
3.06000, 216.0
3.10000, 222.0
3.14000, 223.0
3.18000, 221.0
3.22000, 249.0
3.26000, 312.0
3.30000, 442.0
3.34000, 450.0
3.38000, 319.0
3.42000, 244.0
3.46000, 210.0
3.50000, 213.0
3.54000, 221.0
3.58000, 232.0
3.62000, 293.0
3.66000, 374.0
3.70000, 470.0
3.74000, 345.0
3.78000, 210.0
3.82000, 168.0
3.86000, 152.0
3.90000, 162.0
3.94000, 150.0
3.98000, 169.0
4.02000, 174.0
4.06000, 183.0
4.10000, 162.0
4.14000, 139.0
4.18000, 161.0
4.22000, 134.0
4.26000, 124.0
4.30000, 129.0
4.34000, 125.0
4.38000, 114.0
4.42000, 122.0
4.46000, 130.0
4.50000, 109.0
4.54000, 120.0
4.58000, 118.0
4.62000, 110.0
4.66000, 116.0
4.70000, 105.0
4.74000, 107.0
4.78000, 102.0
4.82000, 104.0
4.86000, 100.0
4.90000, 101.0
4.94000, 92.0
4.98000, 90.0
5.02000, 87.0
5.06000, 93.0
5.10000, 97.0
5.14000, 88.0
5.18000, 79.0
5.22000, 95.0
5.26000, 70.0
5.30000, 76.0
5.34000, 75.0
5.38000, 69.0
5.42000, 72.0
5.46000, 68.0
5.50000, 64.0
5.54000, 77.0
5.58000, 69.0
5.62000, 73.0
5.66000, 67.0
5.70000, 85.0
5.74000, 71.0
5.78000, 68.0
5.82000, 54.0
5.86000, 71.0
5.90000, 67.0
5.94000, 62.0
5.98000, 65.0
6.02000, 50.0
6.06000, 59.0
6.10000, 61.0
6.14000, 54.0
6.18000, 59.0
6.22000, 52.0
6.26000, 47.0
6.30000, 46.0
6.34000, 66.0
6.38000, 73.0
6.42000, 68.0
6.46000, 75.0
6.50000, 48.0
6.54000, 49.0
6.58000, 45.0
6.62000, 46.0
6.66000, 41.0
6.70000, 40.0
6.74000, 47.0
6.78000, 41.0
6.82000, 36.0
6.86000, 32.0
6.90000, 32.0
6.94000, 30.0
6.98000, 43.0
7.02000, 39.0
7.06000, 36.0
7.10000, 41.0
7.14000, 37.0
7.18000, 33.0
7.22000, 29.0
7.26000, 30.0
7.30000, 23.0
7.34000, 18.0
7.38000, 27.0
7.42000, 27.0
7.46000, 34.0
7.50000, 21.0
7.54000, 30.0
7.58000, 23.0
7.62000, 20.0
7.66000, 20.0
7.70000, 21.0
7.74000, 29.0
7.78000, 19.0
7.82000, 18.0
7.86000, 26.0
7.90000, 21.0
7.94000, 22.0
7.98000, 15.0
8.02000, 19.0
8.06000, 15.0
8.10000, 12.0
8.14000, 15.0
8.18000, 18.0
8.22000, 12.0
8.26000, 17.0
8.30000, 16.0
8.34000, 10.0
8.38000, 12.0
8.42000, 12.0
8.46000, 12.0
8.50000, 7.0
8.54000, 14.0
8.58000, 13.0
8.62000, 11.0
8.66000, 10.0
8.70000, 9.0
8.74000, 8.0
8.78000, 10.0
8.82000, 5.0
8.86000, 4.0
8.90000, 7.0
8.94000, 10.0
8.98000, 8.0
9.02000, 4.0
9.06000, 2.0
9.10000, 2.0
9.14000, 4.0
9.18000, 5.0
9.22000, 2.0
9.26000, 3.0
9.30000, 2.0
9.34000, 1.0
9.38000, 1.0
9.42000, 1.0
9.46000, 1.0
9.50000, 1.0
9.54000, 0.0
9.58000, 0.0
9.62000, 0.0
9.66000, 0.0
9.70000, 0.0
9.74000, 1.0
9.78000, 0.0
9.82000, 0.0
9.86000, 0.0
9.90000, 0.0
9.94000, 0.0
9.98000, 0.0
10.02000, 0.0
10.06000, 0.0
10.10000, 0.0
10.13000, 0.0
#ENDOFDATA   :