File: data/EDX_reports/site 5_Spectrum 11.txt
#FORMAT      : EMSA/MAS Spectral Data File
#VERSION     : 1.0
#TITLE       : Spectrum 11
#DATE        : 07-APR-2022
#TIME        : 17:16
#OWNER       :
#NPOINTS     : 1024.0
#NCOLUMNS    : 1.0
#XUNITS      : keV
#YUNITS      : counts
#DATATYPE    : XY
#XPERCHAN    : 0.01
#OFFSET      : -0.1
#SIGNALTYPE  : EDS
#CHOFFSET    : 10.0
#LIVETIME    : 107.407
#REALTIME    : 115.754
#BEAMKV      : 10.0
#MAGCAM      : 1100.0
#XTILTSTGE   : 0.0
#AZIMANGLE   : 0.0
#ELEVANGLE   : 29.0
#XPOSITION mm: -3.9715
#YPOSITION mm: -9.8078
#ZPOSITION mm: 14.0000
##OXINSTPT   : 4
##OXINSTSTROB: 48.44
##OXINSTELEMS: 6,8,11,13,14,19,20,26,12
##OXINSTLABEL: 6, 0.277, C
##OXINSTLABEL: 8, 0.525, O
##OXINSTLABEL: 11, 1.041, Na
##OXINSTLABEL: 13, 1.487, Al
##OXINSTLABEL: 14, 1.740, Si
##OXINSTLABEL: 19, 3.314, K
##OXINSTLABEL: 19, 3.590, K
##OXINSTLABEL: 19, 0.260, K
##OXINSTLABEL: 20, 3.692, Ca
##OXINSTLABEL: 20, 4.013, Ca
##OXINSTLABEL: 20, 0.341, Ca
##OXINSTLABEL: 20, 0.303, Ca
##OXINSTLABEL: 26, 6.404, Fe
##OXINSTLABEL: 26, 7.058, Fe
##OXINSTLABEL: 26, 0.703, Fe
##OXINSTLABEL: 26, 0.615, Fe
##OXINSTLABEL: 12, 1.254, Mg
#SPECTRUM    : Spectral Data Starts Here
-0.10000, 0.0
-0.06000, 0.0
-0.02000, 50.0
0.02000, 2327.0
0.06000, 4616.0
0.10000, 672.0
0.14000, 459.0
0.18000, 548.0
0.22000, 1559.0
0.26000, 6259.0
0.30000, 4069.0
0.34000, 708.0
0.38000, 756.0
0.42000, 1178.0
0.46000, 4999.0
0.50000, 34057.0
0.54000, 39325.0
0.58000, 5577.0
0.62000, 808.0
0.66000, 923.0
0.70000, 1312.0
0.74000, 1037.0
0.78000, 806.0
0.82000, 745.0
0.86000, 730.0
0.90000, 734.0
0.94000, 715.0
0.98000, 820.0
1.02000, 1445.0
1.06000, 1613.0
1.10000, 875.0
1.14000, 703.0
1.18000, 660.0
1.22000, 776.0
1.26000, 829.0
1.30000, 740.0
1.34000, 636.0
1.38000, 628.0
1.42000, 1143.0
1.46000, 4078.0
1.50000, 5719.0
1.54000, 2458.0
1.58000, 840.0
1.62000, 634.0
1.66000, 1784.0
1.70000, 10375.0
1.74000, 22300.0
1.78000, 13578.0
1.82000, 3280.0
1.86000, 1076.0
1.90000, 554.0
1.94000, 368.0
1.98000, 344.0
2.02000, 355.0
2.06000, 334.0
2.10000, 309.0
2.14000, 288.0
2.18000, 313.0
2.22000, 308.0
2.26000, 313.0
2.30000, 306.0
2.34000, 301.0
2.38000, 265.0
2.42000, 273.0
2.46000, 259.0
2.50000, 248.0
2.54000, 247.0
2.58000, 217.0
2.62000, 226.0
2.66000, 234.0
2.70000, 210.0
2.74000, 219.0
2.78000, 199.0
2.82000, 208.0
2.86000, 186.0
2.90000, 210.0
2.94000, 195.0
2.98000, 196.0
3.02000, 181.0
3.06000, 176.0
3.10000, 176.0
3.14000, 192.0
3.18000, 170.0
3.22000, 182.0
3.26000, 229.0
3.30000, 375.0
3.34000, 354.0
3.38000, 221.0
3.42000, 196.0
3.46000, 159.0
3.50000, 169.0
3.54000, 169.0
3.58000, 163.0
3.62000, 171.0
3.66000, 216.0
3.70000, 236.0
3.74000, 195.0
3.78000, 134.0
3.82000, 126.0
3.86000, 129.0
3.90000, 113.0
3.94000, 109.0
3.98000, 111.0
4.02000, 124.0
4.06000, 113.0
4.10000, 109.0
4.14000, 112.0
4.18000, 103.0
4.22000, 92.0
4.26000, 92.0
4.30000, 95.0
4.34000, 91.0
4.38000, 88.0
4.42000, 97.0
4.46000, 112.0
4.50000, 86.0
4.54000, 87.0
4.58000, 84.0
4.62000, 81.0
4.66000, 79.0
4.70000, 65.0
4.74000, 90.0
4.78000, 64.0
4.82000, 79.0
4.86000, 75.0
4.90000, 53.0
4.94000, 65.0
4.98000, 77.0
5.02000, 71.0
5.06000, 53.0
5.10000, 63.0
5.14000, 60.0
5.18000, 57.0
5.22000, 43.0
5.26000, 48.0
5.30000, 51.0
5.34000, 56.0
5.38000, 45.0
5.42000, 47.0
5.46000, 52.0
5.50000, 38.0
5.54000, 48.0
5.58000, 47.0
5.62000, 42.0
5.66000, 50.0
5.70000, 42.0
5.74000, 43.0
5.78000, 40.0
5.82000, 46.0
5.86000, 40.0
5.90000, 40.0
5.94000, 40.0
5.98000, 36.0
6.02000, 34.0
6.06000, 36.0
6.10000, 31.0
6.14000, 33.0
6.18000, 29.0
6.22000, 27.0
6.26000, 32.0
6.30000, 26.0
6.34000, 26.0
6.38000, 26.0
6.42000, 32.0
6.46000, 34.0
6.50000, 25.0
6.54000, 22.0
6.58000, 28.0
6.62000, 20.0
6.66000, 28.0
6.70000, 17.0
6.74000, 19.0
6.78000, 19.0
6.82000, 21.0
6.86000, 20.0
6.90000, 15.0
6.94000, 13.0
6.98000, 15.0
7.02000, 11.0
7.06000, 11.0
7.10000, 13.0
7.14000, 14.0
7.18000, 10.0
7.22000, 9.0
7.26000, 9.0
7.30000, 9.0
7.34000, 8.0
7.38000, 11.0
7.42000, 9.0
7.46000, 7.0
7.50000, 6.0
7.54000, 5.0
7.58000, 7.0
7.62000, 2.0
7.66000, 2.0
7.70000, 3.0
7.74000, 1.0
7.78000, 3.0
7.82000, 2.0
7.86000, 1.0
7.90000, 0.0
7.94000, 0.0
7.98000, 0.0
8.02000, 1.0
8.06000, 0.0
8.10000, 0.0
8.14000, 0.0
8.18000, 0.0
8.22000, 0.0
8.26000, 0.0
8.30000, 0.0
8.34000, 0.0
8.38000, 0.0
8.42000, 0.0
8.46000, 0.0
8.50000, 0.0
8.54000, 0.0
8.58000, 0.0
8.62000, 0.0
8.66000, 0.0
8.70000, 0.0
8.74000, 0.0
8.78000, 0.0
8.82000, 0.0
8.86000, 0.0
8.90000, 0.0
8.94000, 0.0
8.98000, 0.0
9.02000, 1.0
9.06000, 0.0
9.10000, 0.0
9.14000, 0.0
9.18000, 0.0
9.22000, 0.0
9.26000, 0.0
9.30000, 0.0
9.34000, 0.0
9.38000, 0.0
9.42000, 0.0
9.46000, 0.0
9.50000, 0.0
9.54000, 0.0
9.58000, 0.0
9.62000, 0.0
9.66000, 0.0
9.70000, 0.0
9.74000, 0.0
9.78000, 0.0
9.82000, 0.0
9.86000, 0.0
9.90000, 0.0
9.94000, 0.0
9.98000, 0.0
10.02000, 0.0
10.06000, 0.0
10.10000, 0.0
10.13000, 0.0
#ENDOFDATA   :