File: data/EDX_reports/site 4_Spectrum 9.txt
#FORMAT      : EMSA/MAS Spectral Data File
#VERSION     : 1.0
#TITLE       : Spectrum 9
#DATE        : 07-APR-2022
#TIME        : 17:09
#OWNER       :
#NPOINTS     : 1024.0
#NCOLUMNS    : 1.0
#XUNITS      : keV
#YUNITS      : counts
#DATATYPE    : XY
#XPERCHAN    : 0.01
#OFFSET      : -0.1
#SIGNALTYPE  : EDS
#CHOFFSET    : 10.0
#LIVETIME    : 99.5101
#REALTIME    : 107.528
#BEAMKV      : 10.0
#MAGCAM      : 1700.0
#XTILTSTGE   : 0.0
#AZIMANGLE   : 0.0
#ELEVANGLE   : 29.0
#XPOSITION mm: -5.2765
#YPOSITION mm: 4.4840
#ZPOSITION mm: 14.0000
##OXINSTPT   : 4
##OXINSTSTROB: 48.50
##OXINSTELEMS: 6,8,14,20,11,13,17,19,26
##OXINSTLABEL: 6, 0.277, C
##OXINSTLABEL: 8, 0.525, O
##OXINSTLABEL: 14, 1.740, Si
##OXINSTLABEL: 20, 3.692, Ca
##OXINSTLABEL: 20, 4.013, Ca
##OXINSTLABEL: 20, 0.341, Ca
##OXINSTLABEL: 20, 0.303, Ca
##OXINSTLABEL: 11, 1.041, Na
##OXINSTLABEL: 13, 1.487, Al
##OXINSTLABEL: 17, 2.622, Cl
##OXINSTLABEL: 17, 2.816, Cl
##OXINSTLABEL: 17, 0.181, Cl
##OXINSTLABEL: 19, 3.314, K
##OXINSTLABEL: 19, 3.590, K
##OXINSTLABEL: 19, 0.260, K
##OXINSTLABEL: 26, 6.404, Fe
##OXINSTLABEL: 26, 7.058, Fe
##OXINSTLABEL: 26, 0.703, Fe
##OXINSTLABEL: 26, 0.615, Fe
#SPECTRUM    : Spectral Data Starts Here
-0.10000, 0.0
-0.06000, 0.0
-0.02000, 59.0
0.02000, 2216.0
0.06000, 4169.0
0.10000, 465.0
0.14000, 267.0
0.18000, 331.0
0.22000, 982.0
0.26000, 4136.0
0.30000, 2647.0
0.34000, 432.0
0.38000, 508.0
0.42000, 881.0
0.46000, 4258.0
0.50000, 29273.0
0.54000, 33336.0
0.58000, 4531.0
0.62000, 488.0
0.66000, 516.0
0.70000, 657.0
0.74000, 673.0
0.78000, 577.0
0.82000, 635.0
0.86000, 654.0
0.90000, 688.0
0.94000, 679.0
0.98000, 792.0
1.02000, 1396.0
1.06000, 1477.0
1.10000, 902.0
1.14000, 673.0
1.18000, 686.0
1.22000, 679.0
1.26000, 690.0
1.30000, 681.0
1.34000, 698.0
1.38000, 667.0
1.42000, 832.0
1.46000, 1872.0
1.50000, 2406.0
1.54000, 1305.0
1.58000, 752.0
1.62000, 712.0
1.66000, 2317.0
1.70000, 14689.0
1.74000, 31621.0
1.78000, 19217.0
1.82000, 4502.0
1.86000, 1443.0
1.90000, 647.0
1.94000, 418.0
1.98000, 381.0
2.02000, 415.0
2.06000, 349.0
2.10000, 333.0
2.14000, 300.0
2.18000, 317.0
2.22000, 357.0
2.26000, 386.0
2.30000, 366.0
2.34000, 355.0
2.38000, 299.0
2.42000, 279.0
2.46000, 269.0
2.50000, 263.0
2.54000, 293.0
2.58000, 372.0
2.62000, 486.0
2.66000, 424.0
2.70000, 301.0
2.74000, 257.0
2.78000, 242.0
2.82000, 266.0
2.86000, 264.0
2.90000, 222.0
2.94000, 225.0
2.98000, 219.0
3.02000, 213.0
3.06000, 219.0
3.10000, 227.0
3.14000, 180.0
3.18000, 203.0
3.22000, 216.0
3.26000, 268.0
3.30000, 352.0
3.34000, 338.0
3.38000, 268.0
3.42000, 190.0
3.46000, 191.0
3.50000, 211.0
3.54000, 198.0
3.58000, 217.0
3.62000, 316.0
3.66000, 574.0
3.70000, 730.0
3.74000, 505.0
3.78000, 235.0
3.82000, 175.0
3.86000, 167.0
3.90000, 142.0
3.94000, 148.0
3.98000, 190.0
4.02000, 205.0
4.06000, 180.0
4.10000, 127.0
4.14000, 114.0
4.18000, 132.0
4.22000, 118.0
4.26000, 113.0
4.30000, 121.0
4.34000, 110.0
4.38000, 99.0
4.42000, 122.0
4.46000, 114.0
4.50000, 124.0
4.54000, 120.0
4.58000, 101.0
4.62000, 96.0
4.66000, 95.0
4.70000, 95.0
4.74000, 97.0
4.78000, 88.0
4.82000, 92.0
4.86000, 90.0
4.90000, 85.0
4.94000, 79.0
4.98000, 82.0
5.02000, 77.0
5.06000, 88.0
5.10000, 67.0
5.14000, 90.0
5.18000, 76.0
5.22000, 88.0
5.26000, 82.0
5.30000, 76.0
5.34000, 68.0
5.38000, 68.0
5.42000, 79.0
5.46000, 77.0
5.50000, 61.0
5.54000, 69.0
5.58000, 71.0
5.62000, 70.0
5.66000, 63.0
5.70000, 64.0
5.74000, 62.0
5.78000, 63.0
5.82000, 59.0
5.86000, 58.0
5.90000, 49.0
5.94000, 49.0
5.98000, 51.0
6.02000, 54.0
6.06000, 59.0
6.10000, 49.0
6.14000, 45.0
6.18000, 53.0
6.22000, 45.0
6.26000, 41.0
6.30000, 50.0
6.34000, 57.0
6.38000, 74.0
6.42000, 64.0
6.46000, 59.0
6.50000, 45.0
6.54000, 40.0
6.58000, 41.0
6.62000, 44.0
6.66000, 41.0
6.70000, 38.0
6.74000, 29.0
6.78000, 28.0
6.82000, 37.0
6.86000, 29.0
6.90000, 33.0
6.94000, 32.0
6.98000, 38.0
7.02000, 35.0
7.06000, 38.0
7.10000, 31.0
7.14000, 42.0
7.18000, 26.0
7.22000, 26.0
7.26000, 24.0
7.30000, 36.0
7.34000, 22.0
7.38000, 28.0
7.42000, 26.0
7.46000, 22.0
7.50000, 18.0
7.54000, 21.0
7.58000, 23.0
7.62000, 22.0
7.66000, 26.0
7.70000, 21.0
7.74000, 15.0
7.78000, 17.0
7.82000, 23.0
7.86000, 16.0
7.90000, 13.0
7.94000, 18.0
7.98000, 26.0
8.02000, 25.0
8.06000, 11.0
8.10000, 16.0
8.14000, 12.0
8.18000, 16.0
8.22000, 13.0
8.26000, 14.0
8.30000, 7.0
8.34000, 14.0
8.38000, 8.0
8.42000, 13.0
8.46000, 10.0
8.50000, 15.0
8.54000, 9.0
8.58000, 11.0
8.62000, 7.0
8.66000, 8.0
8.70000, 8.0
8.74000, 6.0
8.78000, 10.0
8.82000, 8.0
8.86000, 4.0
8.90000, 8.0
8.94000, 5.0
8.98000, 7.0
9.02000, 5.0
9.06000, 3.0
9.10000, 4.0
9.14000, 4.0
9.18000, 5.0
9.22000, 4.0
9.26000, 3.0
9.30000, 2.0
9.34000, 3.0
9.38000, 3.0
9.42000, 1.0
9.46000, 0.0
9.50000, 0.0
9.54000, 0.0
9.58000, 0.0
9.62000, 1.0
9.66000, 0.0
9.70000, 0.0
9.74000, 0.0
9.78000, 0.0
9.82000, 0.0
9.86000, 0.0
9.90000, 0.0
9.94000, 0.0
9.98000, 1.0
10.02000, 0.0
10.06000, 0.0
10.10000, 0.0
10.13000, 0.0
#ENDOFDATA   :