File: data/EDX_reports/site 4_Spectrum 2.txt
#FORMAT      : EMSA/MAS Spectral Data File
#VERSION     : 1.0
#TITLE       : Spectrum 2
#DATE        : 07-APR-2022
#TIME        : 16:54
#OWNER       :
#NPOINTS     : 1024.0
#NCOLUMNS    : 1.0
#XUNITS      : keV
#YUNITS      : counts
#DATATYPE    : XY
#XPERCHAN    : 0.01
#OFFSET      : -0.1
#SIGNALTYPE  : EDS
#CHOFFSET    : 10.0
#LIVETIME    : 92.8715
#REALTIME    : 100.757
#BEAMKV      : 10.0
#MAGCAM      : 1700.0
#XTILTSTGE   : 0.0
#AZIMANGLE   : 0.0
#ELEVANGLE   : 29.0
#XPOSITION mm: -5.2765
#YPOSITION mm: 4.4840
#ZPOSITION mm: 14.0000
##OXINSTPT   : 4
##OXINSTSTROB: 48.49
##OXINSTELEMS: 6,8,14,11,13,17,19
##OXINSTLABEL: 6, 0.277, C
##OXINSTLABEL: 8, 0.525, O
##OXINSTLABEL: 14, 1.740, Si
##OXINSTLABEL: 11, 1.041, Na
##OXINSTLABEL: 13, 1.487, Al
##OXINSTLABEL: 17, 2.622, Cl
##OXINSTLABEL: 17, 2.816, Cl
##OXINSTLABEL: 17, 0.181, Cl
##OXINSTLABEL: 19, 3.314, K
##OXINSTLABEL: 19, 3.590, K
##OXINSTLABEL: 19, 0.260, K
#SPECTRUM    : Spectral Data Starts Here
-0.10000, 0.0
-0.06000, 0.0
-0.02000, 45.0
0.02000, 2059.0
0.06000, 4025.0
0.10000, 459.0
0.14000, 250.0
0.18000, 321.0
0.22000, 790.0
0.26000, 3307.0
0.30000, 2191.0
0.34000, 421.0
0.38000, 518.0
0.42000, 893.0
0.46000, 4421.0
0.50000, 31321.0
0.54000, 35968.0
0.58000, 4907.0
0.62000, 473.0
0.66000, 470.0
0.70000, 582.0
0.74000, 507.0
0.78000, 579.0
0.82000, 627.0
0.86000, 612.0
0.90000, 639.0
0.94000, 658.0
0.98000, 687.0
1.02000, 1022.0
1.06000, 1064.0
1.10000, 747.0
1.14000, 609.0
1.18000, 637.0
1.22000, 612.0
1.26000, 644.0
1.30000, 607.0
1.34000, 625.0
1.38000, 594.0
1.42000, 686.0
1.46000, 1054.0
1.50000, 1299.0
1.54000, 928.0
1.58000, 714.0
1.62000, 656.0
1.66000, 2449.0
1.70000, 15589.0
1.74000, 33661.0
1.78000, 20347.0
1.82000, 4694.0
1.86000, 1470.0
1.90000, 611.0
1.94000, 359.0
1.98000, 349.0
2.02000, 351.0
2.06000, 320.0
2.10000, 316.0
2.14000, 313.0
2.18000, 311.0
2.22000, 337.0
2.26000, 349.0
2.30000, 341.0
2.34000, 286.0
2.38000, 289.0
2.42000, 259.0
2.46000, 262.0
2.50000, 255.0
2.54000, 269.0
2.58000, 302.0
2.62000, 418.0
2.66000, 366.0
2.70000, 261.0
2.74000, 250.0
2.78000, 237.0
2.82000, 247.0
2.86000, 230.0
2.90000, 227.0
2.94000, 187.0
2.98000, 213.0
3.02000, 203.0
3.06000, 172.0
3.10000, 192.0
3.14000, 175.0
3.18000, 186.0
3.22000, 213.0
3.26000, 194.0
3.30000, 224.0
3.34000, 221.0
3.38000, 218.0
3.42000, 165.0
3.46000, 177.0
3.50000, 196.0
3.54000, 181.0
3.58000, 173.0
3.62000, 179.0
3.66000, 156.0
3.70000, 161.0
3.74000, 161.0
3.78000, 136.0
3.82000, 135.0
3.86000, 129.0
3.90000, 127.0
3.94000, 102.0
3.98000, 117.0
4.02000, 129.0
4.06000, 124.0
4.10000, 110.0
4.14000, 110.0
4.18000, 114.0
4.22000, 116.0
4.26000, 113.0
4.30000, 102.0
4.34000, 97.0
4.38000, 113.0
4.42000, 116.0
4.46000, 103.0
4.50000, 92.0
4.54000, 93.0
4.58000, 94.0
4.62000, 89.0
4.66000, 89.0
4.70000, 80.0
4.74000, 88.0
4.78000, 86.0
4.82000, 88.0
4.86000, 83.0
4.90000, 94.0
4.94000, 72.0
4.98000, 84.0
5.02000, 79.0
5.06000, 74.0
5.10000, 82.0
5.14000, 78.0
5.18000, 65.0
5.22000, 74.0
5.26000, 75.0
5.30000, 75.0
5.34000, 69.0
5.38000, 64.0
5.42000, 60.0
5.46000, 58.0
5.50000, 53.0
5.54000, 60.0
5.58000, 50.0
5.62000, 61.0
5.66000, 51.0
5.70000, 60.0
5.74000, 47.0
5.78000, 53.0
5.82000, 53.0
5.86000, 46.0
5.90000, 55.0
5.94000, 58.0
5.98000, 51.0
6.02000, 52.0
6.06000, 49.0
6.10000, 42.0
6.14000, 52.0
6.18000, 52.0
6.22000, 43.0
6.26000, 50.0
6.30000, 44.0
6.34000, 43.0
6.38000, 45.0
6.42000, 35.0
6.46000, 38.0
6.50000, 45.0
6.54000, 44.0
6.58000, 29.0
6.62000, 43.0
6.66000, 36.0
6.70000, 34.0
6.74000, 28.0
6.78000, 29.0
6.82000, 33.0
6.86000, 37.0
6.90000, 32.0
6.94000, 26.0
6.98000, 28.0
7.02000, 33.0
7.06000, 30.0
7.10000, 22.0
7.14000, 33.0
7.18000, 22.0
7.22000, 24.0
7.26000, 22.0
7.30000, 23.0
7.34000, 18.0
7.38000, 20.0
7.42000, 21.0
7.46000, 23.0
7.50000, 16.0
7.54000, 21.0
7.58000, 14.0
7.62000, 16.0
7.66000, 23.0
7.70000, 16.0
7.74000, 17.0
7.78000, 21.0
7.82000, 20.0
7.86000, 16.0
7.90000, 14.0
7.94000, 15.0
7.98000, 12.0
8.02000, 10.0
8.06000, 13.0
8.10000, 16.0
8.14000, 12.0
8.18000, 12.0
8.22000, 14.0
8.26000, 9.0
8.30000, 10.0
8.34000, 11.0
8.38000, 7.0
8.42000, 12.0
8.46000, 10.0
8.50000, 6.0
8.54000, 9.0
8.58000, 16.0
8.62000, 6.0
8.66000, 8.0
8.70000, 12.0
8.74000, 2.0
8.78000, 4.0
8.82000, 2.0
8.86000, 8.0
8.90000, 10.0
8.94000, 7.0
8.98000, 3.0
9.02000, 4.0
9.06000, 2.0
9.10000, 2.0
9.14000, 1.0
9.18000, 1.0
9.22000, 3.0
9.26000, 0.0
9.30000, 1.0
9.34000, 2.0
9.38000, 1.0
9.42000, 0.0
9.46000, 0.0
9.50000, 0.0
9.54000, 0.0
9.58000, 0.0
9.62000, 0.0
9.66000, 0.0
9.70000, 0.0
9.74000, 0.0
9.78000, 0.0
9.82000, 0.0
9.86000, 0.0
9.90000, 0.0
9.94000, 0.0
9.98000, 0.0
10.02000, 0.0
10.06000, 0.0
10.10000, 0.0
10.13000, 0.0
#ENDOFDATA   :