File: data/EDX_reports/site 4_Spectrum 1.txt
#FORMAT      : EMSA/MAS Spectral Data File
#VERSION     : 1.0
#TITLE       : Spectrum 1
#DATE        : 07-APR-2022
#TIME        : 16:53
#OWNER       :
#NPOINTS     : 1024.0
#NCOLUMNS    : 1.0
#XUNITS      : keV
#YUNITS      : counts
#DATATYPE    : XY
#XPERCHAN    : 0.01
#OFFSET      : -0.1
#SIGNALTYPE  : EDS
#CHOFFSET    : 10.0
#LIVETIME    : 90.0923
#REALTIME    : 97.9888
#BEAMKV      : 10.0
#MAGCAM      : 1700.0
#XTILTSTGE   : 0.0
#AZIMANGLE   : 0.0
#ELEVANGLE   : 29.0
#XPOSITION mm: -5.2765
#YPOSITION mm: 4.4840
#ZPOSITION mm: 14.0000
##OXINSTPT   : 4
##OXINSTSTROB: 48.41
##OXINSTELEMS: 6,8,11,13,14,19,20,26,22
##OXINSTLABEL: 6, 0.277, C
##OXINSTLABEL: 8, 0.525, O
##OXINSTLABEL: 11, 1.041, Na
##OXINSTLABEL: 13, 1.487, Al
##OXINSTLABEL: 14, 1.740, Si
##OXINSTLABEL: 19, 3.314, K
##OXINSTLABEL: 19, 3.590, K
##OXINSTLABEL: 19, 0.260, K
##OXINSTLABEL: 20, 3.692, Ca
##OXINSTLABEL: 20, 4.013, Ca
##OXINSTLABEL: 20, 0.341, Ca
##OXINSTLABEL: 20, 0.303, Ca
##OXINSTLABEL: 26, 6.404, Fe
##OXINSTLABEL: 26, 7.058, Fe
##OXINSTLABEL: 26, 0.703, Fe
##OXINSTLABEL: 26, 0.615, Fe
##OXINSTLABEL: 22, 4.511, Ti
##OXINSTLABEL: 22, 4.932, Ti
##OXINSTLABEL: 22, 0.452, Ti
##OXINSTLABEL: 22, 0.395, Ti
#SPECTRUM    : Spectral Data Starts Here
-0.10000, 0.0
-0.06000, 0.0
-0.02000, 50.0
0.02000, 2049.0
0.06000, 3850.0
0.10000, 459.0
0.14000, 295.0
0.18000, 372.0
0.22000, 919.0
0.26000, 3502.0
0.30000, 2208.0
0.34000, 511.0
0.38000, 590.0
0.42000, 1001.0
0.46000, 4529.0
0.50000, 31227.0
0.54000, 35682.0
0.58000, 4994.0
0.62000, 632.0
0.66000, 748.0
0.70000, 1185.0
0.74000, 999.0
0.78000, 681.0
0.82000, 640.0
0.86000, 622.0
0.90000, 691.0
0.94000, 690.0
0.98000, 787.0
1.02000, 1583.0
1.06000, 1671.0
1.10000, 906.0
1.14000, 665.0
1.18000, 662.0
1.22000, 761.0
1.26000, 797.0
1.30000, 737.0
1.34000, 659.0
1.38000, 693.0
1.42000, 1341.0
1.46000, 4887.0
1.50000, 6762.0
1.54000, 2893.0
1.58000, 940.0
1.62000, 696.0
1.66000, 2001.0
1.70000, 12050.0
1.74000, 25811.0
1.78000, 15647.0
1.82000, 3696.0
1.86000, 1185.0
1.90000, 526.0
1.94000, 359.0
1.98000, 375.0
2.02000, 376.0
2.06000, 348.0
2.10000, 328.0
2.14000, 332.0
2.18000, 306.0
2.22000, 316.0
2.26000, 348.0
2.30000, 335.0
2.34000, 283.0
2.38000, 267.0
2.42000, 254.0
2.46000, 261.0
2.50000, 262.0
2.54000, 252.0
2.58000, 275.0
2.62000, 302.0
2.66000, 283.0
2.70000, 243.0
2.74000, 236.0
2.78000, 219.0
2.82000, 221.0
2.86000, 210.0
2.90000, 203.0
2.94000, 233.0
2.98000, 184.0
3.02000, 178.0
3.06000, 204.0
3.10000, 178.0
3.14000, 176.0
3.18000, 201.0
3.22000, 239.0
3.26000, 353.0
3.30000, 567.0
3.34000, 535.0
3.38000, 309.0
3.42000, 194.0
3.46000, 185.0
3.50000, 198.0
3.54000, 187.0
3.58000, 194.0
3.62000, 227.0
3.66000, 292.0
3.70000, 354.0
3.74000, 253.0
3.78000, 172.0
3.82000, 152.0
3.86000, 124.0
3.90000, 142.0
3.94000, 123.0
3.98000, 154.0
4.02000, 160.0
4.06000, 154.0
4.10000, 118.0
4.14000, 121.0
4.18000, 110.0
4.22000, 114.0
4.26000, 108.0
4.30000, 108.0
4.34000, 102.0
4.38000, 113.0
4.42000, 109.0
4.46000, 119.0
4.50000, 136.0
4.54000, 137.0
4.58000, 119.0
4.62000, 99.0
4.66000, 100.0
4.70000, 100.0
4.74000, 90.0
4.78000, 92.0
4.82000, 85.0
4.86000, 94.0
4.90000, 87.0
4.94000, 98.0
4.98000, 77.0
5.02000, 82.0
5.06000, 80.0
5.10000, 66.0
5.14000, 79.0
5.18000, 77.0
5.22000, 72.0
5.26000, 69.0
5.30000, 72.0
5.34000, 75.0
5.38000, 67.0
5.42000, 61.0
5.46000, 61.0
5.50000, 59.0
5.54000, 49.0
5.58000, 52.0
5.62000, 59.0
5.66000, 57.0
5.70000, 60.0
5.74000, 64.0
5.78000, 57.0
5.82000, 54.0
5.86000, 57.0
5.90000, 53.0
5.94000, 52.0
5.98000, 48.0
6.02000, 53.0
6.06000, 54.0
6.10000, 52.0
6.14000, 42.0
6.18000, 46.0
6.22000, 35.0
6.26000, 46.0
6.30000, 59.0
6.34000, 68.0
6.38000, 82.0
6.42000, 84.0
6.46000, 67.0
6.50000, 49.0
6.54000, 44.0
6.58000, 38.0
6.62000, 33.0
6.66000, 39.0
6.70000, 35.0
6.74000, 23.0
6.78000, 30.0
6.82000, 29.0
6.86000, 26.0
6.90000, 31.0
6.94000, 32.0
6.98000, 28.0
7.02000, 35.0
7.06000, 38.0
7.10000, 24.0
7.14000, 29.0
7.18000, 27.0
7.22000, 32.0
7.26000, 28.0
7.30000, 25.0
7.34000, 21.0
7.38000, 23.0
7.42000, 18.0
7.46000, 20.0
7.50000, 29.0
7.54000, 21.0
7.58000, 26.0
7.62000, 24.0
7.66000, 18.0
7.70000, 21.0
7.74000, 20.0
7.78000, 16.0
7.82000, 17.0
7.86000, 18.0
7.90000, 18.0
7.94000, 19.0
7.98000, 12.0
8.02000, 14.0
8.06000, 15.0
8.10000, 15.0
8.14000, 13.0
8.18000, 16.0
8.22000, 10.0
8.26000, 10.0
8.30000, 15.0
8.34000, 8.0
8.38000, 11.0
8.42000, 8.0
8.46000, 11.0
8.50000, 6.0
8.54000, 15.0
8.58000, 11.0
8.62000, 8.0
8.66000, 7.0
8.70000, 7.0
8.74000, 9.0
8.78000, 10.0
8.82000, 7.0
8.86000, 9.0
8.90000, 4.0
8.94000, 8.0
8.98000, 4.0
9.02000, 5.0
9.06000, 3.0
9.10000, 3.0
9.14000, 5.0
9.18000, 2.0
9.22000, 2.0
9.26000, 1.0
9.30000, 2.0
9.34000, 1.0
9.38000, 0.0
9.42000, 0.0
9.46000, 0.0
9.50000, 0.0
9.54000, 0.0
9.58000, 0.0
9.62000, 0.0
9.66000, 0.0
9.70000, 0.0
9.74000, 0.0
9.78000, 0.0
9.82000, 0.0
9.86000, 0.0
9.90000, 0.0
9.94000, 0.0
9.98000, 0.0
10.02000, 0.0
10.06000, 0.0
10.10000, 0.0
10.13000, 0.0
#ENDOFDATA   :