File: data/EDX_reports/site 5_Spectrum 13.txt
#FORMAT      : EMSA/MAS Spectral Data File
#VERSION     : 1.0
#TITLE       : Spectrum 13
#DATE        : 07-APR-2022
#TIME        : 17:21
#OWNER       :
#NPOINTS     : 1024.0
#NCOLUMNS    : 1.0
#XUNITS      : keV
#YUNITS      : counts
#DATATYPE    : XY
#XPERCHAN    : 0.01
#OFFSET      : -0.1
#SIGNALTYPE  : EDS
#CHOFFSET    : 10.0
#LIVETIME    : 104.827
#REALTIME    : 113.175
#BEAMKV      : 10.0
#MAGCAM      : 1100.0
#XTILTSTGE   : 0.0
#AZIMANGLE   : 0.0
#ELEVANGLE   : 29.0
#XPOSITION mm: -3.9715
#YPOSITION mm: -9.8078
#ZPOSITION mm: 14.0000
##OXINSTPT   : 4
##OXINSTSTROB: 48.52
##OXINSTELEMS: 6,8,11,13,14,19,26,20,12
##OXINSTLABEL: 6, 0.277, C
##OXINSTLABEL: 8, 0.525, O
##OXINSTLABEL: 11, 1.041, Na
##OXINSTLABEL: 13, 1.487, Al
##OXINSTLABEL: 14, 1.740, Si
##OXINSTLABEL: 19, 3.314, K
##OXINSTLABEL: 19, 3.590, K
##OXINSTLABEL: 19, 0.260, K
##OXINSTLABEL: 26, 6.404, Fe
##OXINSTLABEL: 26, 7.058, Fe
##OXINSTLABEL: 26, 0.703, Fe
##OXINSTLABEL: 26, 0.615, Fe
##OXINSTLABEL: 20, 3.692, Ca
##OXINSTLABEL: 20, 4.013, Ca
##OXINSTLABEL: 20, 0.341, Ca
##OXINSTLABEL: 20, 0.303, Ca
##OXINSTLABEL: 12, 1.254, Mg
#SPECTRUM    : Spectral Data Starts Here
-0.10000, 0.0
-0.06000, 1.0
-0.02000, 56.0
0.02000, 2340.0
0.06000, 4576.0
0.10000, 752.0
0.14000, 515.0
0.18000, 649.0
0.22000, 1872.0
0.26000, 7562.0
0.30000, 4873.0
0.34000, 773.0
0.38000, 760.0
0.42000, 1222.0
0.46000, 5072.0
0.50000, 34183.0
0.54000, 39195.0
0.58000, 5531.0
0.62000, 821.0
0.66000, 929.0
0.70000, 1408.0
0.74000, 1098.0
0.78000, 815.0
0.82000, 749.0
0.86000, 744.0
0.90000, 721.0
0.94000, 768.0
0.98000, 887.0
1.02000, 1545.0
1.06000, 1671.0
1.10000, 943.0
1.14000, 715.0
1.18000, 672.0
1.22000, 679.0
1.26000, 801.0
1.30000, 720.0
1.34000, 630.0
1.38000, 594.0
1.42000, 1181.0
1.46000, 3960.0
1.50000, 5463.0
1.54000, 2396.0
1.58000, 849.0
1.62000, 595.0
1.66000, 1650.0
1.70000, 10047.0
1.74000, 21450.0
1.78000, 13073.0
1.82000, 3152.0
1.86000, 1052.0
1.90000, 512.0
1.94000, 370.0
1.98000, 370.0
2.02000, 351.0
2.06000, 330.0
2.10000, 324.0
2.14000, 309.0
2.18000, 304.0
2.22000, 303.0
2.26000, 312.0
2.30000, 331.0
2.34000, 282.0
2.38000, 255.0
2.42000, 248.0
2.46000, 266.0
2.50000, 217.0
2.54000, 237.0
2.58000, 235.0
2.62000, 211.0
2.66000, 218.0
2.70000, 220.0
2.74000, 218.0
2.78000, 214.0
2.82000, 194.0
2.86000, 194.0
2.90000, 173.0
2.94000, 188.0
2.98000, 182.0
3.02000, 189.0
3.06000, 178.0
3.10000, 150.0
3.14000, 163.0
3.18000, 159.0
3.22000, 192.0
3.26000, 261.0
3.30000, 384.0
3.34000, 370.0
3.38000, 250.0
3.42000, 180.0
3.46000, 147.0
3.50000, 144.0
3.54000, 168.0
3.58000, 159.0
3.62000, 184.0
3.66000, 208.0
3.70000, 255.0
3.74000, 183.0
3.78000, 149.0
3.82000, 117.0
3.86000, 112.0
3.90000, 129.0
3.94000, 117.0
3.98000, 119.0
4.02000, 111.0
4.06000, 99.0
4.10000, 101.0
4.14000, 83.0
4.18000, 97.0
4.22000, 99.0
4.26000, 95.0
4.30000, 97.0
4.34000, 82.0
4.38000, 103.0
4.42000, 78.0
4.46000, 86.0
4.50000, 91.0
4.54000, 83.0
4.58000, 91.0
4.62000, 79.0
4.66000, 88.0
4.70000, 72.0
4.74000, 66.0
4.78000, 69.0
4.82000, 71.0
4.86000, 74.0
4.90000, 70.0
4.94000, 71.0
4.98000, 64.0
5.02000, 61.0
5.06000, 53.0
5.10000, 59.0
5.14000, 63.0
5.18000, 56.0
5.22000, 51.0
5.26000, 59.0
5.30000, 50.0
5.34000, 47.0
5.38000, 46.0
5.42000, 62.0
5.46000, 52.0
5.50000, 47.0
5.54000, 56.0
5.58000, 38.0
5.62000, 39.0
5.66000, 42.0
5.70000, 47.0
5.74000, 37.0
5.78000, 37.0
5.82000, 36.0
5.86000, 32.0
5.90000, 42.0
5.94000, 33.0
5.98000, 39.0
6.02000, 25.0
6.06000, 33.0
6.10000, 31.0
6.14000, 35.0
6.18000, 21.0
6.22000, 26.0
6.26000, 32.0
6.30000, 31.0
6.34000, 27.0
6.38000, 30.0
6.42000, 36.0
6.46000, 33.0
6.50000, 23.0
6.54000, 18.0
6.58000, 21.0
6.62000, 19.0
6.66000, 20.0
6.70000, 25.0
6.74000, 24.0
6.78000, 20.0
6.82000, 16.0
6.86000, 16.0
6.90000, 14.0
6.94000, 16.0
6.98000, 21.0
7.02000, 22.0
7.06000, 16.0
7.10000, 6.0
7.14000, 12.0
7.18000, 7.0
7.22000, 6.0
7.26000, 5.0
7.30000, 8.0
7.34000, 5.0
7.38000, 5.0
7.42000, 7.0
7.46000, 6.0
7.50000, 5.0
7.54000, 9.0
7.58000, 2.0
7.62000, 3.0
7.66000, 6.0
7.70000, 3.0
7.74000, 4.0
7.78000, 0.0
7.82000, 4.0
7.86000, 1.0
7.90000, 2.0
7.94000, 0.0
7.98000, 0.0
8.02000, 0.0
8.06000, 0.0
8.10000, 2.0
8.14000, 1.0
8.18000, 0.0
8.22000, 0.0
8.26000, 0.0
8.30000, 0.0
8.34000, 0.0
8.38000, 0.0
8.42000, 0.0
8.46000, 0.0
8.50000, 1.0
8.54000, 0.0
8.58000, 0.0
8.62000, 0.0
8.66000, 0.0
8.70000, 0.0
8.74000, 0.0
8.78000, 0.0
8.82000, 0.0
8.86000, 0.0
8.90000, 0.0
8.94000, 0.0
8.98000, 0.0
9.02000, 0.0
9.06000, 0.0
9.10000, 0.0
9.14000, 0.0
9.18000, 0.0
9.22000, 0.0
9.26000, 0.0
9.30000, 0.0
9.34000, 0.0
9.38000, 0.0
9.42000, 0.0
9.46000, 0.0
9.50000, 0.0
9.54000, 0.0
9.58000, 0.0
9.62000, 0.0
9.66000, 0.0
9.70000, 0.0
9.74000, 0.0
9.78000, 0.0
9.82000, 0.0
9.86000, 0.0
9.90000, 0.0
9.94000, 0.0
9.98000, 0.0
10.02000, 0.0
10.06000, 0.0
10.10000, 0.0
10.13000, 0.0
#ENDOFDATA   :