File: data/EDX_reports/site 5_Spectrum 12.txt
#FORMAT      : EMSA/MAS Spectral Data File
#VERSION     : 1.0
#TITLE       : Spectrum 12
#DATE        : 07-APR-2022
#TIME        : 17:18
#OWNER       :
#NPOINTS     : 1024.0
#NCOLUMNS    : 1.0
#XUNITS      : keV
#YUNITS      : counts
#DATATYPE    : XY
#XPERCHAN    : 0.01
#OFFSET      : -0.1
#SIGNALTYPE  : EDS
#CHOFFSET    : 10.0
#LIVETIME    : 109.946
#REALTIME    : 118.39
#BEAMKV      : 10.0
#MAGCAM      : 1100.0
#XTILTSTGE   : 0.0
#AZIMANGLE   : 0.0
#ELEVANGLE   : 29.0
#XPOSITION mm: -3.9715
#YPOSITION mm: -9.8078
#ZPOSITION mm: 14.0000
##OXINSTPT   : 4
##OXINSTSTROB: 48.41
##OXINSTELEMS: 6,8,11,13,14,19,26,20,12
##OXINSTLABEL: 6, 0.277, C
##OXINSTLABEL: 8, 0.525, O
##OXINSTLABEL: 11, 1.041, Na
##OXINSTLABEL: 13, 1.487, Al
##OXINSTLABEL: 14, 1.740, Si
##OXINSTLABEL: 19, 3.314, K
##OXINSTLABEL: 19, 3.590, K
##OXINSTLABEL: 19, 0.260, K
##OXINSTLABEL: 26, 6.404, Fe
##OXINSTLABEL: 26, 7.058, Fe
##OXINSTLABEL: 26, 0.703, Fe
##OXINSTLABEL: 26, 0.615, Fe
##OXINSTLABEL: 20, 3.692, Ca
##OXINSTLABEL: 20, 4.013, Ca
##OXINSTLABEL: 20, 0.341, Ca
##OXINSTLABEL: 20, 0.303, Ca
##OXINSTLABEL: 12, 1.254, Mg
#SPECTRUM    : Spectral Data Starts Here
-0.10000, 0.0
-0.06000, 0.0
-0.02000, 64.0
0.02000, 2499.0
0.06000, 4665.0
0.10000, 693.0
0.14000, 441.0
0.18000, 563.0
0.22000, 1727.0
0.26000, 7298.0
0.30000, 4547.0
0.34000, 748.0
0.38000, 712.0
0.42000, 1153.0
0.46000, 4835.0
0.50000, 33267.0
0.54000, 38458.0
0.58000, 5396.0
0.62000, 785.0
0.66000, 903.0
0.70000, 1358.0
0.74000, 1129.0
0.78000, 790.0
0.82000, 742.0
0.86000, 747.0
0.90000, 687.0
0.94000, 762.0
0.98000, 808.0
1.02000, 1529.0
1.06000, 1695.0
1.10000, 932.0
1.14000, 698.0
1.18000, 690.0
1.22000, 740.0
1.26000, 835.0
1.30000, 708.0
1.34000, 651.0
1.38000, 678.0
1.42000, 1207.0
1.46000, 4145.0
1.50000, 5701.0
1.54000, 2467.0
1.58000, 816.0
1.62000, 622.0
1.66000, 1663.0
1.70000, 10292.0
1.74000, 22285.0
1.78000, 13416.0
1.82000, 3213.0
1.86000, 1119.0
1.90000, 572.0
1.94000, 376.0
1.98000, 354.0
2.02000, 390.0
2.06000, 326.0
2.10000, 285.0
2.14000, 314.0
2.18000, 272.0
2.22000, 293.0
2.26000, 312.0
2.30000, 297.0
2.34000, 282.0
2.38000, 260.0
2.42000, 251.0
2.46000, 231.0
2.50000, 249.0
2.54000, 243.0
2.58000, 242.0
2.62000, 240.0
2.66000, 223.0
2.70000, 238.0
2.74000, 222.0
2.78000, 205.0
2.82000, 209.0
2.86000, 196.0
2.90000, 184.0
2.94000, 186.0
2.98000, 205.0
3.02000, 178.0
3.06000, 180.0
3.10000, 168.0
3.14000, 184.0
3.18000, 169.0
3.22000, 191.0
3.26000, 275.0
3.30000, 378.0
3.34000, 414.0
3.38000, 254.0
3.42000, 171.0
3.46000, 148.0
3.50000, 155.0
3.54000, 168.0
3.58000, 181.0
3.62000, 196.0
3.66000, 212.0
3.70000, 253.0
3.74000, 204.0
3.78000, 160.0
3.82000, 131.0
3.86000, 121.0
3.90000, 124.0
3.94000, 113.0
3.98000, 134.0
4.02000, 124.0
4.06000, 110.0
4.10000, 105.0
4.14000, 84.0
4.18000, 93.0
4.22000, 95.0
4.26000, 91.0
4.30000, 93.0
4.34000, 99.0
4.38000, 87.0
4.42000, 93.0
4.46000, 84.0
4.50000, 102.0
4.54000, 86.0
4.58000, 79.0
4.62000, 85.0
4.66000, 75.0
4.70000, 70.0
4.74000, 76.0
4.78000, 74.0
4.82000, 66.0
4.86000, 72.0
4.90000, 63.0
4.94000, 66.0
4.98000, 76.0
5.02000, 61.0
5.06000, 66.0
5.10000, 61.0
5.14000, 67.0
5.18000, 65.0
5.22000, 63.0
5.26000, 58.0
5.30000, 41.0
5.34000, 53.0
5.38000, 61.0
5.42000, 57.0
5.46000, 61.0
5.50000, 47.0
5.54000, 56.0
5.58000, 54.0
5.62000, 45.0
5.66000, 33.0
5.70000, 44.0
5.74000, 47.0
5.78000, 41.0
5.82000, 42.0
5.86000, 33.0
5.90000, 43.0
5.94000, 34.0
5.98000, 29.0
6.02000, 31.0
6.06000, 37.0
6.10000, 35.0
6.14000, 24.0
6.18000, 38.0
6.22000, 29.0
6.26000, 27.0
6.30000, 32.0
6.34000, 31.0
6.38000, 36.0
6.42000, 38.0
6.46000, 29.0
6.50000, 19.0
6.54000, 20.0
6.58000, 20.0
6.62000, 19.0
6.66000, 17.0
6.70000, 24.0
6.74000, 16.0
6.78000, 17.0
6.82000, 15.0
6.86000, 12.0
6.90000, 14.0
6.94000, 12.0
6.98000, 18.0
7.02000, 13.0
7.06000, 11.0
7.10000, 14.0
7.14000, 10.0
7.18000, 11.0
7.22000, 11.0
7.26000, 17.0
7.30000, 12.0
7.34000, 7.0
7.38000, 7.0
7.42000, 4.0
7.46000, 6.0
7.50000, 5.0
7.54000, 4.0
7.58000, 7.0
7.62000, 4.0
7.66000, 6.0
7.70000, 5.0
7.74000, 3.0
7.78000, 1.0
7.82000, 3.0
7.86000, 2.0
7.90000, 1.0
7.94000, 1.0
7.98000, 0.0
8.02000, 1.0
8.06000, 0.0
8.10000, 0.0
8.14000, 1.0
8.18000, 0.0
8.22000, 1.0
8.26000, 1.0
8.30000, 0.0
8.34000, 0.0
8.38000, 1.0
8.42000, 0.0
8.46000, 0.0
8.50000, 0.0
8.54000, 1.0
8.58000, 0.0
8.62000, 0.0
8.66000, 0.0
8.70000, 0.0
8.74000, 0.0
8.78000, 0.0
8.82000, 0.0
8.86000, 0.0
8.90000, 0.0
8.94000, 0.0
8.98000, 0.0
9.02000, 0.0
9.06000, 0.0
9.10000, 0.0
9.14000, 0.0
9.18000, 0.0
9.22000, 0.0
9.26000, 0.0
9.30000, 0.0
9.34000, 0.0
9.38000, 0.0
9.42000, 0.0
9.46000, 0.0
9.50000, 0.0
9.54000, 0.0
9.58000, 0.0
9.62000, 0.0
9.66000, 0.0
9.70000, 0.0
9.74000, 0.0
9.78000, 0.0
9.82000, 0.0
9.86000, 0.0
9.90000, 0.0
9.94000, 0.0
9.98000, 0.0
10.02000, 0.0
10.06000, 0.0
10.10000, 0.0
10.13000, 0.0
#ENDOFDATA   :