File: data/EDX_reports/site 5_Spectrum 14.txt
#FORMAT      : EMSA/MAS Spectral Data File
#VERSION     : 1.0
#TITLE       : Spectrum 14
#DATE        : 07-APR-2022
#TIME        : 17:23
#OWNER       :
#NPOINTS     : 1024.0
#NCOLUMNS    : 1.0
#XUNITS      : keV
#YUNITS      : counts
#DATATYPE    : XY
#XPERCHAN    : 0.01
#OFFSET      : -0.1
#SIGNALTYPE  : EDS
#CHOFFSET    : 10.0
#LIVETIME    : 104.938
#REALTIME    : 113.17
#BEAMKV      : 10.0
#MAGCAM      : 1100.0
#XTILTSTGE   : 0.0
#AZIMANGLE   : 0.0
#ELEVANGLE   : 29.0
#XPOSITION mm: -3.9715
#YPOSITION mm: -9.8078
#ZPOSITION mm: 14.0000
##OXINSTPT   : 4
##OXINSTSTROB: 48.47
##OXINSTELEMS: 6,8,11,13,14,19,26,20
##OXINSTLABEL: 6, 0.277, C
##OXINSTLABEL: 8, 0.525, O
##OXINSTLABEL: 11, 1.041, Na
##OXINSTLABEL: 13, 1.487, Al
##OXINSTLABEL: 14, 1.740, Si
##OXINSTLABEL: 19, 3.314, K
##OXINSTLABEL: 19, 3.590, K
##OXINSTLABEL: 19, 0.260, K
##OXINSTLABEL: 26, 6.404, Fe
##OXINSTLABEL: 26, 7.058, Fe
##OXINSTLABEL: 26, 0.703, Fe
##OXINSTLABEL: 26, 0.615, Fe
##OXINSTLABEL: 20, 3.692, Ca
##OXINSTLABEL: 20, 4.013, Ca
##OXINSTLABEL: 20, 0.341, Ca
##OXINSTLABEL: 20, 0.303, Ca
#SPECTRUM    : Spectral Data Starts Here
-0.10000, 0.0
-0.06000, 0.0
-0.02000, 47.0
0.02000, 2361.0
0.06000, 4538.0
0.10000, 686.0
0.14000, 458.0
0.18000, 580.0
0.22000, 1622.0
0.26000, 6499.0
0.30000, 4145.0
0.34000, 690.0
0.38000, 762.0
0.42000, 1162.0
0.46000, 5024.0
0.50000, 33792.0
0.54000, 39149.0
0.58000, 5553.0
0.62000, 796.0
0.66000, 939.0
0.70000, 1333.0
0.74000, 1044.0
0.78000, 767.0
0.82000, 737.0
0.86000, 742.0
0.90000, 738.0
0.94000, 751.0
0.98000, 839.0
1.02000, 1824.0
1.06000, 1930.0
1.10000, 943.0
1.14000, 694.0
1.18000, 703.0
1.22000, 787.0
1.26000, 843.0
1.30000, 753.0
1.34000, 610.0
1.38000, 604.0
1.42000, 1179.0
1.46000, 4097.0
1.50000, 5626.0
1.54000, 2395.0
1.58000, 817.0
1.62000, 613.0
1.66000, 1746.0
1.70000, 10276.0
1.74000, 22185.0
1.78000, 13371.0
1.82000, 3206.0
1.86000, 1072.0
1.90000, 526.0
1.94000, 350.0
1.98000, 359.0
2.02000, 365.0
2.06000, 339.0
2.10000, 327.0
2.14000, 283.0
2.18000, 294.0
2.22000, 301.0
2.26000, 313.0
2.30000, 320.0
2.34000, 275.0
2.38000, 257.0
2.42000, 237.0
2.46000, 243.0
2.50000, 263.0
2.54000, 225.0
2.58000, 253.0
2.62000, 227.0
2.66000, 207.0
2.70000, 213.0
2.74000, 209.0
2.78000, 220.0
2.82000, 208.0
2.86000, 216.0
2.90000, 184.0
2.94000, 189.0
2.98000, 195.0
3.02000, 197.0
3.06000, 165.0
3.10000, 164.0
3.14000, 164.0
3.18000, 171.0
3.22000, 180.0
3.26000, 255.0
3.30000, 414.0
3.34000, 414.0
3.38000, 290.0
3.42000, 179.0
3.46000, 152.0
3.50000, 157.0
3.54000, 160.0
3.58000, 166.0
3.62000, 171.0
3.66000, 215.0
3.70000, 231.0
3.74000, 183.0
3.78000, 154.0
3.82000, 113.0
3.86000, 124.0
3.90000, 107.0
3.94000, 126.0
3.98000, 115.0
4.02000, 142.0
4.06000, 106.0
4.10000, 125.0
4.14000, 105.0
4.18000, 111.0
4.22000, 100.0
4.26000, 96.0
4.30000, 98.0
4.34000, 87.0
4.38000, 96.0
4.42000, 86.0
4.46000, 95.0
4.50000, 102.0
4.54000, 90.0
4.58000, 100.0
4.62000, 89.0
4.66000, 83.0
4.70000, 76.0
4.74000, 70.0
4.78000, 77.0
4.82000, 64.0
4.86000, 68.0
4.90000, 70.0
4.94000, 78.0
4.98000, 63.0
5.02000, 62.0
5.06000, 57.0
5.10000, 61.0
5.14000, 58.0
5.18000, 54.0
5.22000, 57.0
5.26000, 53.0
5.30000, 49.0
5.34000, 47.0
5.38000, 53.0
5.42000, 43.0
5.46000, 45.0
5.50000, 43.0
5.54000, 51.0
5.58000, 40.0
5.62000, 46.0
5.66000, 44.0
5.70000, 41.0
5.74000, 49.0
5.78000, 43.0
5.82000, 43.0
5.86000, 41.0
5.90000, 36.0
5.94000, 38.0
5.98000, 30.0
6.02000, 37.0
6.06000, 35.0
6.10000, 34.0
6.14000, 32.0
6.18000, 28.0
6.22000, 33.0
6.26000, 25.0
6.30000, 32.0
6.34000, 34.0
6.38000, 40.0
6.42000, 30.0
6.46000, 34.0
6.50000, 22.0
6.54000, 27.0
6.58000, 20.0
6.62000, 25.0
6.66000, 17.0
6.70000, 18.0
6.74000, 22.0
6.78000, 22.0
6.82000, 19.0
6.86000, 23.0
6.90000, 18.0
6.94000, 24.0
6.98000, 18.0
7.02000, 8.0
7.06000, 19.0
7.10000, 14.0
7.14000, 15.0
7.18000, 13.0
7.22000, 16.0
7.26000, 13.0
7.30000, 8.0
7.34000, 12.0
7.38000, 8.0
7.42000, 7.0
7.46000, 5.0
7.50000, 6.0
7.54000, 5.0
7.58000, 11.0
7.62000, 6.0
7.66000, 9.0
7.70000, 2.0
7.74000, 5.0
7.78000, 4.0
7.82000, 3.0
7.86000, 3.0
7.90000, 2.0
7.94000, 1.0
7.98000, 2.0
8.02000, 0.0
8.06000, 0.0
8.10000, 0.0
8.14000, 0.0
8.18000, 0.0
8.22000, 0.0
8.26000, 0.0
8.30000, 0.0
8.34000, 0.0
8.38000, 0.0
8.42000, 0.0
8.46000, 0.0
8.50000, 1.0
8.54000, 0.0
8.58000, 0.0
8.62000, 0.0
8.66000, 0.0
8.70000, 0.0
8.74000, 1.0
8.78000, 0.0
8.82000, 0.0
8.86000, 0.0
8.90000, 0.0
8.94000, 0.0
8.98000, 0.0
9.02000, 0.0
9.06000, 0.0
9.10000, 0.0
9.14000, 0.0
9.18000, 0.0
9.22000, 0.0
9.26000, 0.0
9.30000, 0.0
9.34000, 0.0
9.38000, 0.0
9.42000, 0.0
9.46000, 0.0
9.50000, 0.0
9.54000, 0.0
9.58000, 0.0
9.62000, 0.0
9.66000, 0.0
9.70000, 0.0
9.74000, 0.0
9.78000, 0.0
9.82000, 0.0
9.86000, 1.0
9.90000, 0.0
9.94000, 0.0
9.98000, 0.0
10.02000, 0.0
10.06000, 0.0
10.10000, 0.0
10.13000, 0.0
#ENDOFDATA   :